# total density of states output by FHI-aims 
# The energy reference for this output is the vacuum level
#    Energy (eV)      DOS 
        -10.00000000         33.95459828
         -9.99000000         40.93830699
         -9.98000000         57.24357054
         -9.97000000         44.15620980
         -9.96000000         44.08061581
         -9.95000000         42.38225438
         -9.94000000         44.84378702
         -9.93000000         46.81102171
         -9.92000000         28.92281126
         -9.91000000         29.64204741
         -9.90000000         28.30248722
         -9.89000000         27.18065495
         -9.88000000         60.10587025
         -9.87000000         41.27225296
         -9.86000000         42.08124380
         -9.85000000         39.73213765
         -9.84000000         31.48513628
         -9.83000000         27.20680202
         -9.82000000         25.27057485
         -9.81000000         21.83810455
         -9.80000000         31.26634633
         -9.79000000         53.97354609
         -9.78000000         47.25935113
         -9.77000000         41.23666112
         -9.76000000         34.69139797
         -9.75000000         23.14000083
         -9.74000000         15.98136835
         -9.73000000         33.35151815
         -9.72000000         42.49681218
         -9.71000000         35.16396499
         -9.70000000         27.38606917
         -9.69000000         31.70242708
         -9.68000000         41.52723373
         -9.67000000         44.81481108
         -9.66000000         48.81533311
         -9.65000000         33.84675335
         -9.64000000         35.78232254
         -9.63000000         45.01873821
         -9.62000000         48.18199526
         -9.61000000         44.84602616
         -9.60000000         42.94797027
         -9.59000000         61.32507218
         -9.58000000        183.11229226
         -9.57000000         63.04032174
         -9.56000000         61.31196997
         -9.55000000         48.58330789
         -9.54000000         49.46796312
         -9.53000000         74.86600094
         -9.52000000         60.52753849
         -9.51000000         87.66732855
         -9.50000000         50.58957568
         -9.49000000         44.59759639
         -9.48000000         99.63022934
         -9.47000000         39.76416164
         -9.46000000        120.15748095
         -9.45000000         71.17290458
         -9.44000000        126.33322180
         -9.43000000         49.65014635
         -9.42000000        109.12140487
         -9.41000000         80.33156097
         -9.40000000         59.36341724
         -9.39000000         63.48928844
         -9.38000000        114.34521255
         -9.37000000         56.12753255
         -9.36000000         52.15700870
         -9.35000000         48.13880106
         -9.34000000         58.26554129
         -9.33000000         38.31837750
         -9.32000000         84.59493954
         -9.31000000         64.62927052
         -9.30000000         91.77533980
         -9.29000000         82.90120784
         -9.28000000         67.29271929
         -9.27000000         58.45884982
         -9.26000000         44.76423554
         -9.25000000         68.02314860
         -9.24000000         59.55295557
         -9.23000000         47.58067367
         -9.22000000         46.00263180
         -9.21000000         57.99671390
         -9.20000000         48.20190424
         -9.19000000         42.58976417
         -9.18000000         41.20784010
         -9.17000000         40.93237215
         -9.16000000         37.96722270
         -9.15000000         33.83202878
         -9.14000000         32.43449855
         -9.13000000         30.39936982
         -9.12000000         28.86267198
         -9.11000000         83.77664197
         -9.10000000         44.24900697
         -9.09000000         49.11937459
         -9.08000000         73.93199007
         -9.07000000         53.00171255
         -9.06000000         40.26978100
         -9.05000000         42.39833517
         -9.04000000         43.15015067
         -9.03000000         38.33239955
         -9.02000000         36.86374670
         -9.01000000        125.21959805
         -9.00000000         75.10089686
         -8.99000000         40.49915207
         -8.98000000         37.45725608
         -8.97000000         73.42100606
         -8.96000000         90.16673799
         -8.95000000         91.29338887
         -8.94000000         61.01904987
         -8.93000000         53.55278449
         -8.92000000         13.24363343
         -8.91000000          7.39257179
         -8.90000000         73.71440683
         -8.89000000        137.54014557
         -8.88000000         17.69445466
         -8.87000000         16.27730818
         -8.86000000         25.24617428
         -8.85000000         52.47753643
         -8.84000000         55.46021263
         -8.83000000         46.35095432
         -8.82000000         33.24093417
         -8.81000000         21.74127559
         -8.80000000         36.98124479
         -8.79000000         44.32911016
         -8.78000000         32.39625181
         -8.77000000         21.19503044
         -8.76000000         16.47293031
         -8.75000000         26.76278924
         -8.74000000         48.71961707
         -8.73000000         87.94638703
         -8.72000000         21.98376732
         -8.71000000         14.57220709
         -8.70000000         12.90789946
         -8.69000000         24.78756120
         -8.68000000         31.82221046
         -8.67000000         32.09250543
         -8.66000000         31.49582819
         -8.65000000         31.15858924
         -8.64000000         31.51740122
         -8.63000000         17.18802817
         -8.62000000         20.20337281
         -8.61000000         32.63434164
         -8.60000000         25.98234255
         -8.59000000         31.08855377
         -8.58000000         43.23634627
         -8.57000000         21.35673883
         -8.56000000         26.73446450
         -8.55000000         35.15312996
         -8.54000000         36.03947959
         -8.53000000         36.92582921
         -8.52000000         32.75844616
         -8.51000000         33.14443166
         -8.50000000         25.19201401
         -8.49000000         32.30235343
         -8.48000000         45.61866493
         -8.47000000         49.68632621
         -8.46000000         44.07625035
         -8.45000000         40.49418053
         -8.44000000         33.80327012
         -8.43000000         57.00890222
         -8.42000000         48.52303573
         -8.41000000         48.37517920
         -8.40000000         58.43291687
         -8.39000000         59.54705969
         -8.38000000         43.35055942
         -8.37000000         40.60560027
         -8.36000000         62.46429028
         -8.35000000         40.84459654
         -8.34000000         40.36269098
         -8.33000000         37.94473919
         -8.32000000         37.61853055
         -8.31000000         52.83144239
         -8.30000000         55.29903996
         -8.29000000         67.39160923
         -8.28000000         67.22174232
         -8.27000000         57.16315180
         -8.26000000         56.50663019
         -8.25000000         72.38941838
         -8.24000000         45.83962906
         -8.23000000         51.96222587
         -8.22000000        108.08981651
         -8.21000000         39.90121746
         -8.20000000         20.37903398
         -8.19000000         88.60451861
         -8.18000000         55.52736324
         -8.17000000         61.44235583
         -8.16000000         59.58260402
         -8.15000000         82.89043232
         -8.14000000         82.39791716
         -8.13000000         87.98863281
         -8.12000000        104.99757420
         -8.11000000         92.76081524
         -8.10000000         99.57247920
         -8.09000000        115.79088990
         -8.08000000         99.12504864
         -8.07000000         74.78175319
         -8.06000000         80.60889316
         -8.05000000         83.01512030
         -8.04000000         87.41113998
         -8.03000000         78.16592846
         -8.02000000         92.06373224
         -8.01000000         80.52291877
         -8.00000000         91.57880050
         -7.99000000        101.49996670
         -7.98000000         66.35164701
         -7.97000000         81.27540801
         -7.96000000         93.26501064
         -7.95000000         63.21763678
         -7.94000000         71.42371853
         -7.93000000         58.30655727
         -7.92000000         79.22734400
         -7.91000000         63.99318344
         -7.90000000         59.34644990
         -7.89000000         91.80183558
         -7.88000000         71.74038516
         -7.87000000         56.64089939
         -7.86000000         62.49953490
         -7.85000000         62.90984248
         -7.84000000         49.04455483
         -7.83000000         49.37298318
         -7.82000000         45.36002008
         -7.81000000         47.49423558
         -7.80000000         44.11017468
         -7.79000000         58.54582346
         -7.78000000         88.94178045
         -7.77000000         81.22643718
         -7.76000000         80.45675693
         -7.75000000         84.74719698
         -7.74000000         68.04712221
         -7.73000000         81.53428391
         -7.72000000         63.75577093
         -7.71000000         50.93483121
         -7.70000000         84.13886599
         -7.69000000         28.22211798
         -7.68000000         31.22269062
         -7.67000000         54.09703409
         -7.66000000         93.52887659
         -7.65000000         50.43086301
         -7.64000000         85.45921400
         -7.63000000         60.75607715
         -7.62000000         82.27775556
         -7.61000000         56.20116754
         -7.60000000         86.89456260
         -7.59000000         59.38135741
         -7.58000000         72.45432861
         -7.57000000         66.58498117
         -7.56000000         74.59700899
         -7.55000000         69.08001374
         -7.54000000         62.45996693
         -7.53000000         58.27681806
         -7.52000000         54.49826441
         -7.51000000         51.24248034
         -7.50000000         53.17171451
         -7.49000000         48.98777105
         -7.48000000         46.62390527
         -7.47000000         44.96329002
         -7.46000000         48.13611547
         -7.45000000         45.18565655
         -7.44000000         38.87126145
         -7.43000000         35.55705804
         -7.42000000         42.24037194
         -7.41000000         55.99243379
         -7.40000000         42.42359886
         -7.39000000         48.66733286
         -7.38000000         46.16328434
         -7.37000000         51.17026465
         -7.36000000         36.89178731
         -7.35000000         63.66447567
         -7.34000000         51.50537130
         -7.33000000         49.49684200
         -7.32000000         44.55559477
         -7.31000000         50.35348677
         -7.30000000         71.96564501
         -7.29000000         43.06276158
         -7.28000000         48.51785556
         -7.27000000         59.79251068
         -7.26000000         48.82889246
         -7.25000000         63.67864462
         -7.24000000         72.86734975
         -7.23000000         56.81828722
         -7.22000000         57.23552024
         -7.21000000         34.57956424
         -7.20000000         44.40963601
         -7.19000000         76.31707008
         -7.18000000         47.38945289
         -7.17000000         52.26728218
         -7.16000000         63.96948921
         -7.15000000         41.46899210
         -7.14000000         83.03365814
         -7.13000000         65.80187892
         -7.12000000         35.78722544
         -7.11000000         33.74484101
         -7.10000000         34.79496521
         -7.09000000         43.12289879
         -7.08000000         61.34153178
         -7.07000000         45.56257496
         -7.06000000         70.09480244
         -7.05000000         99.51434929
         -7.04000000         53.86751740
         -7.03000000         46.82703413
         -7.02000000         54.27226189
         -7.01000000         42.69180095
         -7.00000000         43.72348050
         -6.99000000         39.44044532
         -6.98000000         52.07643481
         -6.97000000         46.95086913
         -6.96000000         44.30799290
         -6.95000000         44.36890165
         -6.94000000         30.14086353
         -6.93000000         99.89912645
         -6.92000000         54.06016860
         -6.91000000         60.79075478
         -6.90000000         52.47210876
         -6.89000000         50.68569754
         -6.88000000         28.64613448
         -6.87000000         30.75184732
         -6.86000000         41.11766780
         -6.85000000         66.93366766
         -6.84000000         51.45316435
         -6.83000000         41.77061131
         -6.82000000         46.98031672
         -6.81000000         44.39176169
         -6.80000000         35.07648269
         -6.79000000         93.47493465
         -6.78000000         71.48555676
         -6.77000000         40.72958937
         -6.76000000         17.53035296
         -6.75000000         60.78517262
         -6.74000000        100.30621961
         -6.73000000        108.96288666
         -6.72000000         45.66424159
         -6.71000000         77.46722755
         -6.70000000         39.91832227
         -6.69000000          9.65297046
         -6.68000000         33.46800969
         -6.67000000        101.08148608
         -6.66000000         26.15476518
         -6.65000000        120.93734057
         -6.64000000        116.52971805
         -6.63000000          0.00000000
         -6.62000000         63.16439847
         -6.61000000         57.63098303
         -6.60000000         73.79695594
         -6.59000000         72.21480723
         -6.58000000         70.94784871
         -6.57000000         79.02361062
         -6.56000000         63.04403100
         -6.55000000         37.87346835
         -6.54000000         51.14886456
         -6.53000000         80.53112850
         -6.52000000         37.41368353
         -6.51000000         78.86868749
         -6.50000000         77.16581228
         -6.49000000         45.14645701
         -6.48000000         52.12756219
         -6.47000000         51.36346832
         -6.46000000         39.50587392
         -6.45000000         36.97562558
         -6.44000000         60.65791629
         -6.43000000         66.25870492
         -6.42000000         28.56427347
         -6.41000000         79.90520870
         -6.40000000         67.50291182
         -6.39000000         47.23252932
         -6.38000000         37.49245746
         -6.37000000         39.83363459
         -6.36000000         29.09835629
         -6.35000000         22.23086053
         -6.34000000         27.86452558
         -6.33000000        130.76964219
         -6.32000000         42.81073135
         -6.31000000          0.00000000
         -6.30000000          6.45123837
         -6.29000000         17.90974846
         -6.28000000         25.41151054
         -6.27000000         37.99705785
         -6.26000000         45.18942810
         -6.25000000         57.01301417
         -6.24000000         48.43980772
         -6.23000000         47.70630617
         -6.22000000        130.68472282
         -6.21000000         24.00167584
         -6.20000000         17.44254551
         -6.19000000         20.46450323
         -6.18000000         23.48646095
         -6.17000000         31.73336522
         -6.16000000         53.58419897
         -6.15000000         11.64644543
         -6.14000000          2.01540159
         -6.13000000          9.97262868
         -6.12000000         27.28313299
         -6.11000000         36.70558785
         -6.10000000         56.17079527
         -6.09000000         42.46936427
         -6.08000000         27.55619476
         -6.07000000          0.00000000
         -6.06000000          0.00000000
         -6.05000000          0.00000000
         -6.04000000          0.00000000
         -6.03000000          9.06381398
         -6.02000000         12.86447184
         -6.01000000         16.66512970
         -6.00000000         44.95869016
         -5.99000000         32.62321253
         -5.98000000         31.06728706
         -5.97000000         26.83288270
         -5.96000000         31.42148266
         -5.95000000          0.00000000
         -5.94000000          0.00000000
         -5.93000000         31.62715175
         -5.92000000         41.43645772
         -5.91000000         65.03276771
         -5.90000000          0.00000000
         -5.89000000          0.00000000
         -5.88000000         22.25573823
         -5.87000000         27.19873642
         -5.86000000         31.10804190
         -5.85000000         29.13646291
         -5.84000000         15.36967809
         -5.83000000         16.95174869
         -5.82000000         16.08005777
         -5.81000000         13.28623379
         -5.80000000         10.49240981
         -5.79000000          7.69858583
         -5.78000000          7.00814507
         -5.77000000          3.62942327
         -5.76000000          0.25070147
         -5.75000000          0.00000000
         -5.74000000          0.00000000
         -5.73000000         18.86539522
         -5.72000000         61.92453860
         -5.71000000        104.44864630
         -5.70000000          0.00000000
         -5.69000000          0.00000000
         -5.68000000          0.00000000
         -5.67000000          0.00000000
         -5.66000000          0.00000000
         -5.65000000          0.00000000
         -5.64000000          0.00000000
         -5.63000000          0.00000000
         -5.62000000          0.00000000
         -5.61000000          0.00000000
         -5.60000000          0.00000000
         -5.59000000          0.00000000
         -5.58000000          0.00000000
         -5.57000000          0.00000000
         -5.56000000          0.00000000
         -5.55000000          0.00000000
         -5.54000000          0.00000000
         -5.53000000          0.00000000
         -5.52000000          0.00000000
         -5.51000000          0.00000000
         -5.50000000          0.00000000
         -5.49000000          0.00000000
         -5.48000000          0.00000000
         -5.47000000          0.00000000
         -5.46000000          0.00000000
         -5.45000000          0.00000000
         -5.44000000          0.00000000
         -5.43000000          0.00000000
         -5.42000000          0.00000000
         -5.41000000          0.00000000
         -5.40000000          0.00000000
         -5.39000000          0.00000000
         -5.38000000          0.00000000
         -5.37000000          0.00000000
         -5.36000000          0.00000000
         -5.35000000          0.00000000
         -5.34000000          0.00000000
         -5.33000000          0.00000000
         -5.32000000          0.00000000
         -5.31000000          0.00000000
         -5.30000000          0.00000000
         -5.29000000          0.00000000
         -5.28000000          0.00000000
         -5.27000000          0.00000000
         -5.26000000          0.00000000
         -5.25000000          0.00000000
         -5.24000000          0.00000000
         -5.23000000          0.00000000
         -5.22000000          0.00000000
         -5.21000000          0.00000000
         -5.20000000          0.00000000
         -5.19000000          0.00000000
         -5.18000000          0.00000000
         -5.17000000          0.00000000
         -5.16000000          0.00000000
         -5.15000000          0.00000000
         -5.14000000          0.00000000
         -5.13000000          0.00000000
         -5.12000000        198.54304559
         -5.11000000         50.27152025
         -5.10000000          0.00000000
         -5.09000000          0.00000000
         -5.08000000          0.00000000
         -5.07000000          0.00000000
         -5.06000000          0.00000000
         -5.05000000          0.00000000
         -5.04000000          0.00000000
         -5.03000000          0.00000000
         -5.02000000         59.89425655
         -5.01000000         53.99225775
         -5.00000000         57.03550322
         -4.99000000         52.43413249
         -4.98000000          0.00000000
         -4.97000000          0.00000000
         -4.96000000          0.00000000
         -4.95000000          0.00000000
         -4.94000000          0.00000000
         -4.93000000          0.00000000
         -4.92000000          0.00000000
         -4.91000000          0.00000000
         -4.90000000          0.00000000
         -4.89000000          0.00000000
         -4.88000000          0.00000000
         -4.87000000          0.00000000
         -4.86000000          0.00000000
         -4.85000000          0.00000000
         -4.84000000          0.00000000
         -4.83000000          0.00000000
         -4.82000000          0.00000000
         -4.81000000          0.00000000
         -4.80000000          0.00000000
         -4.79000000          0.00000000
         -4.78000000          0.00000000
         -4.77000000          0.00000000
         -4.76000000          0.00000000
         -4.75000000          0.00000000
         -4.74000000          0.00000000
         -4.73000000          0.00000000
         -4.72000000          0.00000000
         -4.71000000          0.00000000
         -4.70000000          0.00000000
         -4.69000000          0.00000000
         -4.68000000          0.00000000
         -4.67000000          0.00000000
         -4.66000000          0.00000000
         -4.65000000          0.00000000
         -4.64000000          0.00000000
         -4.63000000          0.00000000
         -4.62000000          0.00000000
         -4.61000000          0.00000000
         -4.60000000          0.00000000
         -4.59000000          0.00000000
         -4.58000000          0.00000000
         -4.57000000          0.00000000
         -4.56000000        156.94728787
         -4.55000000        130.59727003
         -4.54000000          0.00000000
         -4.53000000          0.00000000
         -4.52000000          0.00000000
         -4.51000000          0.00000000
         -4.50000000          0.00000000
         -4.49000000          0.00000000
         -4.48000000          0.00000000
         -4.47000000          0.00000000
         -4.46000000          0.00000000
         -4.45000000          0.00000000
         -4.44000000          0.00000000
         -4.43000000          0.00000000
         -4.42000000          0.00000000
         -4.41000000          0.00000000
         -4.40000000          0.00000000
         -4.39000000          0.00000000
         -4.38000000          0.00000000
         -4.37000000          0.00000000
         -4.36000000          0.00000000
         -4.35000000          0.00000000
         -4.34000000          0.00000000
         -4.33000000          0.00000000
         -4.32000000          0.00000000
         -4.31000000          0.00000000
         -4.30000000          0.00000000
         -4.29000000          0.00000000
         -4.28000000          0.00000000
         -4.27000000          0.00000000
         -4.26000000          0.00000000
         -4.25000000          0.00000000
         -4.24000000          0.00000000
         -4.23000000          0.00000000
         -4.22000000          0.00000000
         -4.21000000          0.00000000
         -4.20000000          0.00000000
         -4.19000000          0.00000000
         -4.18000000          0.00000000
         -4.17000000          0.00000000
         -4.16000000          0.00000000
         -4.15000000          0.00000000
         -4.14000000          0.00000000
         -4.13000000          0.00000000
         -4.12000000          0.00000000
         -4.11000000          0.00000000
         -4.10000000          0.00000000
         -4.09000000          0.00000000
         -4.08000000          0.00000000
         -4.07000000          0.00000000
         -4.06000000          0.00000000
         -4.05000000          0.00000000
         -4.04000000          0.00000000
         -4.03000000          0.00000000
         -4.02000000         43.84630579
         -4.01000000         78.16182609
         -4.00000000         56.48045731
         -3.99000000          0.00000000
         -3.98000000          0.00000000
         -3.97000000          0.00000000
         -3.96000000          0.00000000
         -3.95000000          0.00000000
         -3.94000000          0.00000000
         -3.93000000          0.00000000
         -3.92000000          0.00000000
         -3.91000000          0.00000000
         -3.90000000          6.07896649
         -3.89000000         10.03550373
         -3.88000000         10.42095115
         -3.87000000         27.24469698
         -3.86000000         22.26347670
         -3.85000000         20.11215285
         -3.84000000         17.96082899
         -3.83000000         15.63180624
         -3.82000000         23.26676665
         -3.81000000         20.67497201
         -3.80000000         11.72178732
         -3.79000000          0.00000000
         -3.78000000          3.22066709
         -3.77000000          6.82390650
         -3.76000000         14.80303388
         -3.75000000         23.42936985
         -3.74000000         30.88738395
         -3.73000000         22.49901354
         -3.72000000         25.02685392
         -3.71000000         38.80909337
         -3.70000000         47.34190021
         -3.69000000         36.76767722
         -3.68000000         71.52399500
         -3.67000000         73.83728816
         -3.66000000        119.82339606
         -3.65000000        108.51000954
         -3.64000000         91.25658770
         -3.63000000         86.95149829
         -3.62000000         63.30945156
         -3.61000000         47.72538087
         -3.60000000         58.20191817
         -3.59000000         88.60776262
         -3.58000000         83.06845577
         -3.57000000         59.35725170
         -3.56000000        107.98742532
         -3.55000000        102.47783831
         -3.54000000        128.24956625
         -3.53000000         74.76702522
         -3.52000000         66.13739566
         -3.51000000         72.95209728
         -3.50000000         46.63566367
         -3.49000000         80.87258173
         -3.48000000         57.37331084
         -3.47000000         97.98175035
         -3.46000000         54.44845246
         -3.45000000         66.90741976
         -3.44000000        111.38012268
         -3.43000000        108.03060743
         -3.42000000        103.77053534
         -3.41000000         68.99831045
         -3.40000000         35.21915231
         -3.39000000         34.94770040
         -3.38000000         77.11944420
         -3.37000000         72.05800748
         -3.36000000         59.26902264
         -3.35000000         60.63664799
         -3.34000000         37.49249323
         -3.33000000         58.39677280
         -3.32000000        253.09322881
         -3.31000000        101.84871842
         -3.30000000          6.40236233
         -3.29000000         10.62275070
         -3.28000000         49.19700698
         -3.27000000         70.62866089
         -3.26000000         25.72098418
         -3.25000000         92.59286043
         -3.24000000         70.64226870
         -3.23000000         96.02527392
         -3.22000000         63.01090044
         -3.21000000         30.04831487
         -3.20000000         57.36327253
         -3.19000000         49.71692474
         -3.18000000         78.00177339
         -3.17000000         89.39282957
         -3.16000000         40.21961954
         -3.15000000        126.73348432
         -3.14000000          0.00000000
         -3.13000000         23.44943647
         -3.12000000         45.21620523
         -3.11000000        125.79589600
         -3.10000000         37.20628587
         -3.09000000         39.61787742
         -3.08000000         51.21723502
         -3.07000000         77.11516772
         -3.06000000         24.99979329
         -3.05000000         66.87416543
         -3.04000000         83.16322187
         -3.03000000         88.67090811
         -3.02000000         94.90254012
         -3.01000000        106.02960234
         -3.00000000        116.26542592
         -2.99000000        102.98483563
         -2.98000000         59.73785750
         -2.97000000         67.18887732
         -2.96000000         92.62518824
         -2.95000000         81.59863613
         -2.94000000         70.93456081
         -2.93000000         87.22476884
         -2.92000000         74.90445109
         -2.91000000         76.28552226
         -2.90000000         72.68655789
         -2.89000000        110.37161650
         -2.88000000         80.72362345
         -2.87000000        119.64305673
         -2.86000000         76.46649126
         -2.85000000         53.04421646
         -2.84000000         19.89227608
         -2.83000000        329.73695669
         -2.82000000        105.24717222
         -2.81000000         63.85303602
         -2.80000000        162.59017014
         -2.79000000         64.33249261
         -2.78000000         84.86416292
         -2.77000000         73.15459026
         -2.76000000         92.32696238
         -2.75000000         68.39474757
         -2.74000000        100.98772649
         -2.73000000         75.84911076
         -2.72000000         57.41982221
         -2.71000000         46.08587610
         -2.70000000         68.29438868
         -2.69000000         54.68753360
         -2.68000000         98.00436929
         -2.67000000         49.24995862
         -2.66000000         86.05110205
         -2.65000000         64.49521712
         -2.64000000         61.89458644
         -2.63000000         39.19948326
         -2.62000000         59.00066817
         -2.61000000         79.00328045
         -2.60000000         54.22400586
         -2.59000000         56.23576121
         -2.58000000         40.53658233
         -2.57000000         99.29978151
         -2.56000000         50.84179261
         -2.55000000        134.25887391
         -2.54000000         66.60099629
         -2.53000000        179.24072340
         -2.52000000         96.57182606
         -2.51000000         24.64143293
         -2.50000000         30.51387916
         -2.49000000        156.98304501
         -2.48000000        130.69120998
         -2.47000000         78.71128553
         -2.46000000         91.18254839
         -2.45000000         63.53185269
         -2.44000000         68.98030576
         -2.43000000        136.87592267
         -2.42000000         39.16258270
         -2.41000000         78.97453457
         -2.40000000         50.36625025
         -2.39000000         52.02299520
         -2.38000000         52.49491915
         -2.37000000         61.11915687
         -2.36000000         63.31178388
         -2.35000000         82.36207585
         -2.34000000        112.49078178
         -2.33000000         79.78630971
         -2.32000000         62.77963363
         -2.31000000         68.11890920
         -2.30000000         77.70306556
         -2.29000000         32.65346139
         -2.28000000         25.56468138
         -2.27000000         63.50272989
         -2.26000000         78.89711571
         -2.25000000         26.47715288
         -2.24000000         95.13360887
         -2.23000000        109.05002548
         -2.22000000         56.01843147
         -2.21000000         14.29760885
         -2.20000000         96.89554478
         -2.19000000         44.34791812
         -2.18000000         33.83685569
         -2.17000000         43.55141654
         -2.16000000        184.09056663
         -2.15000000         25.48161925
         -2.14000000         32.55222462
         -2.13000000         36.50850556
         -2.12000000         33.02937149
         -2.11000000         31.12024960
         -2.10000000         41.20409027
         -2.09000000         55.23391726
         -2.08000000         47.29692059
         -2.07000000         40.83593423
         -2.06000000         29.32688419
         -2.05000000         22.32696047
         -2.04000000         28.46892335
         -2.03000000         35.48363252
         -2.02000000         33.36724333
         -2.01000000         28.90255031
         -2.00000000         23.50444046
         -1.99000000         18.10633061
         -1.98000000         13.85357467
         -1.97000000         23.97932689
         -1.96000000         61.14926031
         -1.95000000         49.60430640
         -1.94000000         38.58197040
         -1.93000000         39.35347313
         -1.92000000        130.21382310
         -1.91000000         34.11904845
         -1.90000000        140.70736685
         -1.89000000         45.24469527
         -1.88000000          0.00000000
         -1.87000000        154.64831480
         -1.86000000         39.53045166
         -1.85000000         38.64245367
         -1.84000000         22.11835770
         -1.83000000         25.58166809
         -1.82000000         44.40787961
         -1.81000000         58.32309488
         -1.80000000         35.70280935
         -1.79000000         14.44631730
         -1.78000000          7.10430532
         -1.77000000          7.58482321
         -1.76000000         11.40635198
         -1.75000000         15.22788074
         -1.74000000         19.04940951
         -1.73000000         28.49814791
         -1.72000000         54.63219343
         -1.71000000         49.84635328
         -1.70000000         42.45234475
         -1.69000000         33.71393295
         -1.68000000         50.11727053
         -1.67000000         33.22721934
         -1.66000000         24.98450868
         -1.65000000         16.74179803
         -1.64000000          8.49908738
         -1.63000000          1.19272638
         -1.62000000          0.00000000
         -1.61000000         17.88515454
         -1.60000000         90.80972396
         -1.59000000         62.72317099
         -1.58000000         27.62654730
         -1.57000000          4.23978012
         -1.56000000          0.00000000
         -1.55000000          0.00000000
         -1.54000000          0.00000000
         -1.53000000         36.84528749
         -1.52000000         62.99980098
         -1.51000000         48.42907515
         -1.50000000         21.06257559
         -1.49000000         20.21552344
         -1.48000000         23.62591660
         -1.47000000         31.06885855
         -1.46000000         45.87615840
         -1.45000000         43.11486509
         -1.44000000         42.89401288
         -1.43000000         43.62537387
         -1.42000000         56.95522810
         -1.41000000         52.13942178
         -1.40000000         46.74612446
         -1.39000000         55.31182624
         -1.38000000         49.83958017
         -1.37000000         31.20143203
         -1.36000000         26.30107222
         -1.35000000         37.01599119
         -1.34000000         13.60281358
         -1.33000000         13.36776396
         -1.32000000         31.36797815
         -1.31000000         56.19487342
         -1.30000000         42.29510168
         -1.29000000         42.35129382
         -1.28000000         34.73852178
         -1.27000000         27.12574975
         -1.26000000         19.78868307
         -1.25000000         18.99570498
         -1.24000000         18.70569311
         -1.23000000         19.49537077
         -1.22000000         31.25700365
         -1.21000000         70.45215111
         -1.20000000         27.27655658
         -1.19000000         36.33449996
         -1.18000000        145.17756494
         -1.17000000         39.14695224
         -1.16000000         26.60977849
         -1.15000000         13.50609856
         -1.14000000         14.84302591
         -1.13000000         62.77284171
         -1.12000000         71.26477292
         -1.11000000          0.00000000
         -1.10000000          0.00000000
         -1.09000000         16.25828417
         -1.08000000         44.48089253
         -1.07000000         44.51485474
         -1.06000000         29.33213841
         -1.05000000         41.42220968
         -1.04000000         59.21314150
         -1.03000000         42.78566151
         -1.02000000         45.20662509
         -1.01000000         52.49531168
         -1.00000000         65.41598199
         -0.99000000         49.42239742
         -0.98000000         51.31978929
         -0.97000000         81.71107185
         -0.96000000         59.13365993
         -0.95000000         53.99887878
         -0.94000000         51.91614960
         -0.93000000         66.67257324
         -0.92000000         94.07561737
         -0.91000000         83.77826016
         -0.90000000         83.20426388
         -0.89000000         61.64267904
         -0.88000000         72.90292300
         -0.87000000         94.71562198
         -0.86000000         62.48534642
         -0.85000000         65.56414051
         -0.84000000         60.85156587
         -0.83000000         61.14046262
         -0.82000000         55.76849838
         -0.81000000         57.79145676
         -0.80000000         44.96028464
         -0.79000000         37.89251713
         -0.78000000         32.42660190
         -0.77000000         31.46028085
         -0.76000000         30.85412751
         -0.75000000         35.60126270
         -0.74000000         31.71959255
         -0.73000000         34.11619037
         -0.72000000         67.58921484
         -0.71000000         59.09012121
         -0.70000000         26.11960620
         -0.69000000         14.53813959
         -0.68000000          0.00000000
         -0.67000000         22.02591797
         -0.66000000         73.86805408
         -0.65000000         48.26298553
         -0.64000000         20.72805164
         -0.63000000         12.05925799
         -0.62000000          8.63455450
         -0.61000000          4.51782343
         -0.60000000         14.26557444
         -0.59000000         62.69745162
         -0.58000000         92.00096915
         -0.57000000         16.13088350
         -0.56000000         12.43496487
         -0.55000000          8.73904624
         -0.54000000         13.80966482
         -0.53000000         39.24139696
         -0.52000000         20.05714017
         -0.51000000         22.01985193
         -0.50000000         24.54102240
         -0.49000000         31.67880930
         -0.48000000         25.03135704
         -0.47000000         20.29135750
         -0.46000000         19.86269760
         -0.45000000         19.59150174
         -0.44000000          8.46404359
         -0.43000000          9.65258616
         -0.42000000         10.84112872
         -0.41000000         13.13058493
         -0.40000000         16.12794193
         -0.39000000         27.90950924
         -0.38000000         26.67707296
         -0.37000000         15.60704695
         -0.36000000         12.14118053
         -0.35000000         10.57554328
         -0.34000000         10.49498593
         -0.33000000         12.01574158
         -0.32000000          0.00000000
         -0.31000000          0.00000000
         -0.30000000          0.00000000
         -0.29000000          0.00000000
         -0.28000000          0.00000000
         -0.27000000          0.00000000
         -0.26000000          0.00000000
         -0.25000000          0.00000000
         -0.24000000          0.00000000
         -0.23000000          0.00000000
         -0.22000000          0.00000000
         -0.21000000          0.00000000
         -0.20000000          0.00000000
         -0.19000000          0.00000000
         -0.18000000          0.00000000
         -0.17000000          0.00000000
         -0.16000000          0.00000000
         -0.15000000          0.00000000
         -0.14000000          0.00000000
         -0.13000000          0.00000000
         -0.12000000          0.00000000
         -0.11000000          0.00000000
         -0.10000000          0.00000000
         -0.09000000          0.00000000
         -0.08000000          0.00000000
         -0.07000000          0.00000000
         -0.06000000          0.00000000
         -0.05000000          0.00000000
         -0.04000000          0.00000000
         -0.03000000          0.00000000
         -0.02000000          0.00000000
         -0.01000000          0.00000000
          0.00000000          0.00000000
