# total density of states output by FHI-aims 
# The energy reference for this output is the vacuum level
#    Energy (eV)      DOS 
        -10.00000000         46.70187603
         -9.99000000         50.61572226
         -9.98000000         43.64300620
         -9.97000000         41.63668868
         -9.96000000         37.34254930
         -9.95000000         33.13181524
         -9.94000000         28.99662368
         -9.93000000         26.70075317
         -9.92000000         43.48626020
         -9.91000000         43.45315726
         -9.90000000         42.79831117
         -9.89000000         49.97396507
         -9.88000000         56.73796772
         -9.87000000         49.32698763
         -9.86000000         41.76360067
         -9.85000000         33.56083143
         -9.84000000         26.95859804
         -9.83000000         21.37311669
         -9.82000000         18.36104418
         -9.81000000         19.05704368
         -9.80000000         21.74586581
         -9.79000000         27.62259715
         -9.78000000         38.35837184
         -9.77000000         32.40201031
         -9.76000000         95.52400323
         -9.75000000         51.47103483
         -9.74000000         28.66507313
         -9.73000000         36.11737390
         -9.72000000         32.24914220
         -9.71000000         32.88141293
         -9.70000000         36.08719295
         -9.69000000         39.29297298
         -9.68000000         40.98086895
         -9.67000000         43.91323423
         -9.66000000         35.21700937
         -9.65000000         47.10171163
         -9.64000000         66.36538413
         -9.63000000         54.92261793
         -9.62000000         74.45453545
         -9.61000000         24.18123737
         -9.60000000         13.66210910
         -9.59000000        111.93204167
         -9.58000000         58.60439580
         -9.57000000         41.53610438
         -9.56000000         74.40151148
         -9.55000000         90.68530756
         -9.54000000         51.18165873
         -9.53000000         80.32795499
         -9.52000000         87.33429013
         -9.51000000         82.75447127
         -9.50000000         87.70508918
         -9.49000000         82.75607602
         -9.48000000         82.49107263
         -9.47000000         68.10942278
         -9.46000000         74.26285289
         -9.45000000         62.65464834
         -9.44000000         73.20638341
         -9.43000000         55.77064230
         -9.42000000         45.70910058
         -9.41000000         49.81747584
         -9.40000000         69.01678474
         -9.39000000        113.52111596
         -9.38000000         65.92493632
         -9.37000000         71.00161140
         -9.36000000         63.90220786
         -9.35000000        126.67206336
         -9.34000000         90.13061466
         -9.33000000         54.51863912
         -9.32000000         66.54297427
         -9.31000000         59.91769275
         -9.30000000         71.56449213
         -9.29000000         31.32652094
         -9.28000000         35.00127331
         -9.27000000         31.34586171
         -9.26000000         51.59869585
         -9.25000000         36.23742453
         -9.24000000         74.79602756
         -9.23000000        100.55582179
         -9.22000000         46.06731276
         -9.21000000         79.75794936
         -9.20000000         50.28342433
         -9.19000000         54.27517940
         -9.18000000         46.71570796
         -9.17000000         45.82778662
         -9.16000000         47.97833954
         -9.15000000         49.39089752
         -9.14000000         64.54489894
         -9.13000000         45.33293567
         -9.12000000        210.64350134
         -9.11000000         49.23623315
         -9.10000000          8.59625709
         -9.09000000         29.45725673
         -9.08000000         65.91717040
         -9.07000000         71.15935662
         -9.06000000         67.20033683
         -9.05000000         45.27042728
         -9.04000000         45.59669626
         -9.03000000         47.31252147
         -9.02000000        102.42581465
         -9.01000000         66.25590747
         -9.00000000         34.00917056
         -8.99000000         25.13912216
         -8.98000000         47.21003540
         -8.97000000         94.04850849
         -8.96000000         64.82069417
         -8.95000000         39.52341960
         -8.94000000         31.73198750
         -8.93000000         30.69697772
         -8.92000000         29.43826176
         -8.91000000         61.97286745
         -8.90000000         47.70057253
         -8.89000000         51.23663918
         -8.88000000         19.11083052
         -8.87000000         20.07702623
         -8.86000000         26.69524998
         -8.85000000         45.85272852
         -8.84000000         45.29014116
         -8.83000000         31.42810271
         -8.82000000         35.82187758
         -8.81000000         44.71802420
         -8.80000000         64.52318640
         -8.79000000         41.12444175
         -8.78000000         45.03034851
         -8.77000000         39.33254593
         -8.76000000         56.40075363
         -8.75000000         29.46545761
         -8.74000000          5.38600698
         -8.73000000          6.28850823
         -8.72000000          7.19100947
         -8.71000000          8.09351071
         -8.70000000          8.99601195
         -8.69000000         63.83424996
         -8.68000000         19.90844940
         -8.67000000         33.14873266
         -8.66000000         41.24979698
         -8.65000000         44.13725180
         -8.64000000         41.89866664
         -8.63000000         43.60776770
         -8.62000000         41.40075572
         -8.61000000         43.56995626
         -8.60000000         37.68609440
         -8.59000000         39.46224404
         -8.58000000         44.06514997
         -8.57000000         33.33277773
         -8.56000000         37.44576834
         -8.55000000         50.98082229
         -8.54000000         49.06185351
         -8.53000000         50.11233632
         -8.52000000         43.52583593
         -8.51000000         44.51851054
         -8.50000000         41.52785629
         -8.49000000         50.05187626
         -8.48000000         51.95045954
         -8.47000000         43.62343511
         -8.46000000         36.97514619
         -8.45000000         49.86963164
         -8.44000000         37.78732792
         -8.43000000         43.84919435
         -8.42000000         25.80898048
         -8.41000000         23.12716114
         -8.40000000         26.72703542
         -8.39000000         53.47691524
         -8.38000000         66.75658686
         -8.37000000         67.69378819
         -8.36000000         55.15542395
         -8.35000000        118.35971723
         -8.34000000         60.11195413
         -8.33000000         51.54149922
         -8.32000000         75.86841213
         -8.31000000         54.78729957
         -8.30000000         57.55290065
         -8.29000000         68.06424006
         -8.28000000         74.79437619
         -8.27000000         50.76425054
         -8.26000000         58.53341574
         -8.25000000         41.20375050
         -8.24000000         86.29150369
         -8.23000000        118.49754537
         -8.22000000         75.81197145
         -8.21000000         64.05721057
         -8.20000000         51.61246564
         -8.19000000         58.07146538
         -8.18000000        109.31391933
         -8.17000000         92.22563574
         -8.16000000         83.44985955
         -8.15000000         84.98762112
         -8.14000000         69.75593441
         -8.13000000         96.26992691
         -8.12000000         62.77543878
         -8.11000000         82.17933997
         -8.10000000         95.75716602
         -8.09000000         84.61880018
         -8.08000000         86.29944396
         -8.07000000         86.00201170
         -8.06000000         85.17699520
         -8.05000000         79.32039485
         -8.04000000         77.76421016
         -8.03000000         66.46635836
         -8.02000000         65.06295040
         -8.01000000         84.15942050
         -8.00000000         79.29702389
         -7.99000000        104.43053683
         -7.98000000         69.94889734
         -7.97000000         74.46076552
         -7.96000000        101.82265245
         -7.95000000         89.78404056
         -7.94000000         67.72563782
         -7.93000000         81.92779258
         -7.92000000         50.71879256
         -7.91000000         61.03098255
         -7.90000000         59.24553956
         -7.89000000         70.28947179
         -7.88000000         49.73634541
         -7.87000000         78.29261469
         -7.86000000         63.10638869
         -7.85000000         64.24667579
         -7.84000000         69.72829036
         -7.83000000         63.29633449
         -7.82000000        374.32098201
         -7.81000000         58.29024439
         -7.80000000         84.27124692
         -7.79000000         53.65208789
         -7.78000000         49.68417999
         -7.77000000         69.80494207
         -7.76000000         50.74946106
         -7.75000000         57.04259207
         -7.74000000         36.68717463
         -7.73000000         40.93231862
         -7.72000000         48.32387146
         -7.71000000        133.94782430
         -7.70000000         50.68508636
         -7.69000000         93.28039700
         -7.68000000         64.00383441
         -7.67000000         41.66557894
         -7.66000000         38.82389334
         -7.65000000         55.44912389
         -7.64000000         40.58070812
         -7.63000000         47.80135051
         -7.62000000         64.93195091
         -7.61000000         89.48187631
         -7.60000000         60.14717512
         -7.59000000         37.69680181
         -7.58000000         48.54479840
         -7.57000000         48.49226965
         -7.56000000         56.18844807
         -7.55000000         49.02905808
         -7.54000000        123.45431764
         -7.53000000         49.24628444
         -7.52000000         60.77308087
         -7.51000000         40.89992305
         -7.50000000         37.14865944
         -7.49000000         33.65645438
         -7.48000000         33.18521428
         -7.47000000         33.08007312
         -7.46000000         43.80774301
         -7.45000000         45.97840999
         -7.44000000         48.60857285
         -7.43000000         45.29453087
         -7.42000000         50.74474218
         -7.41000000         59.68150046
         -7.40000000        111.81253592
         -7.39000000         61.68540569
         -7.38000000         57.53876109
         -7.37000000         68.71508563
         -7.36000000         86.82820570
         -7.35000000         42.59249524
         -7.34000000         38.20016643
         -7.33000000         57.72205819
         -7.32000000         62.52253110
         -7.31000000         49.81208955
         -7.30000000         42.53191614
         -7.29000000         37.92926286
         -7.28000000         37.98526838
         -7.27000000         46.17406527
         -7.26000000         75.44111118
         -7.25000000         67.09121930
         -7.24000000         55.14642667
         -7.23000000         68.08807852
         -7.22000000         58.68290790
         -7.21000000         33.18033911
         -7.20000000         40.13049975
         -7.19000000         47.17429379
         -7.18000000         53.32823657
         -7.17000000         55.84859301
         -7.16000000         55.56155604
         -7.15000000         51.48149283
         -7.14000000         38.02504230
         -7.13000000         66.17384786
         -7.12000000         37.45458955
         -7.11000000         52.91166062
         -7.10000000        130.64929248
         -7.09000000         30.64550884
         -7.08000000         34.95447203
         -7.07000000         79.16722711
         -7.06000000        111.99315955
         -7.05000000         55.97181844
         -7.04000000         67.48121103
         -7.03000000         81.81697904
         -7.02000000         34.36146373
         -7.01000000         27.98623756
         -7.00000000         54.51645555
         -6.99000000         45.32041835
         -6.98000000         82.94349019
         -6.97000000         63.04174720
         -6.96000000         39.96575853
         -6.95000000         49.15437261
         -6.94000000          9.00033876
         -6.93000000         20.35367911
         -6.92000000         68.28891580
         -6.91000000         88.17812994
         -6.90000000         37.24524569
         -6.89000000         25.62957266
         -6.88000000         27.77808055
         -6.87000000         47.09311994
         -6.86000000         45.13624385
         -6.85000000         46.59487219
         -6.84000000         30.96265979
         -6.83000000         60.78139210
         -6.82000000        106.12157616
         -6.81000000         32.62700865
         -6.80000000         53.93438724
         -6.79000000         52.14227064
         -6.78000000         35.98514825
         -6.77000000         42.32740448
         -6.76000000         54.62495886
         -6.75000000         42.84481457
         -6.74000000         52.03659937
         -6.73000000         65.98678742
         -6.72000000         77.26321066
         -6.71000000         47.12685177
         -6.70000000         29.01090035
         -6.69000000         71.14665506
         -6.68000000         23.06342645
         -6.67000000          8.24593484
         -6.66000000         83.37471811
         -6.65000000         83.12509990
         -6.64000000         13.81481345
         -6.63000000         74.51896302
         -6.62000000        107.14601426
         -6.61000000         58.32154600
         -6.60000000         35.75555603
         -6.59000000         37.28131021
         -6.58000000         57.06647433
         -6.57000000         63.33096568
         -6.56000000         47.30340391
         -6.55000000         51.15496790
         -6.54000000         58.51360903
         -6.53000000         63.07336870
         -6.52000000         38.26898755
         -6.51000000         44.19482275
         -6.50000000         54.94749031
         -6.49000000         36.56540047
         -6.48000000         41.04293493
         -6.47000000         48.14629457
         -6.46000000         63.11851428
         -6.45000000         82.36146526
         -6.44000000         65.68332448
         -6.43000000         64.70966121
         -6.42000000          3.67440471
         -6.41000000         26.89465610
         -6.40000000         41.26234958
         -6.39000000         40.13708243
         -6.38000000        135.53429530
         -6.37000000          1.98478135
         -6.36000000         44.19270120
         -6.35000000         95.64947732
         -6.34000000        108.68967201
         -6.33000000         69.14359994
         -6.32000000         66.49544702
         -6.31000000         24.38488823
         -6.30000000         46.47906922
         -6.29000000         53.77150871
         -6.28000000         41.23437053
         -6.27000000         15.42399541
         -6.26000000         29.48034137
         -6.25000000         32.35313787
         -6.24000000         35.86214518
         -6.23000000         39.69166546
         -6.22000000         32.53384319
         -6.21000000         17.37440991
         -6.20000000         13.39910133
         -6.19000000         16.13890141
         -6.18000000         23.20658199
         -6.17000000         96.00608849
         -6.16000000         46.78271506
         -6.15000000         56.47837996
         -6.14000000         75.35592420
         -6.13000000         64.44251581
         -6.12000000         74.71757407
         -6.11000000          8.25926413
         -6.10000000         14.15441438
         -6.09000000         19.06054203
         -6.08000000         22.73677843
         -6.07000000         39.75448179
         -6.06000000         18.04949147
         -6.05000000         34.27012405
         -6.04000000         17.77958836
         -6.03000000         10.27824997
         -6.02000000          0.00000000
         -6.01000000          0.00000000
         -6.00000000          0.00000000
         -5.99000000          0.00000000
         -5.98000000          0.00000000
         -5.97000000          0.00000000
         -5.96000000         48.02491476
         -5.95000000         61.23930174
         -5.94000000         31.26442345
         -5.93000000         24.56433293
         -5.92000000          0.00000000
         -5.91000000          0.00000000
         -5.90000000         22.04082412
         -5.89000000         36.38655220
         -5.88000000         42.36140257
         -5.87000000         23.54175585
         -5.86000000         26.38861183
         -5.85000000         21.47847321
         -5.84000000         21.82982288
         -5.83000000          0.00000000
         -5.82000000          0.00000000
         -5.81000000          0.00000000
         -5.80000000          0.00000000
         -5.79000000          0.00000000
         -5.78000000          0.00000000
         -5.77000000          0.00000000
         -5.76000000          0.00000000
         -5.75000000          0.00000000
         -5.74000000          0.00000000
         -5.73000000          0.00000000
         -5.72000000          0.00000000
         -5.71000000          0.00000000
         -5.70000000          0.00000000
         -5.69000000          0.00000000
         -5.68000000          0.00000000
         -5.67000000          0.00000000
         -5.66000000          0.00000000
         -5.65000000          0.00000000
         -5.64000000          0.00000000
         -5.63000000          0.00000000
         -5.62000000          0.00000000
         -5.61000000          0.00000000
         -5.60000000          0.00000000
         -5.59000000          0.00000000
         -5.58000000          0.00000000
         -5.57000000          0.00000000
         -5.56000000          0.00000000
         -5.55000000          0.00000000
         -5.54000000         18.63780058
         -5.53000000         83.88740789
         -5.52000000        103.06415751
         -5.51000000          0.00000000
         -5.50000000          0.00000000
         -5.49000000          0.00000000
         -5.48000000          0.00000000
         -5.47000000          0.00000000
         -5.46000000          0.00000000
         -5.45000000          0.00000000
         -5.44000000          0.00000000
         -5.43000000          0.00000000
         -5.42000000          0.00000000
         -5.41000000          0.00000000
         -5.40000000          0.00000000
         -5.39000000          0.00000000
         -5.38000000          0.00000000
         -5.37000000          0.00000000
         -5.36000000          0.00000000
         -5.35000000          0.00000000
         -5.34000000          0.00000000
         -5.33000000          0.00000000
         -5.32000000          0.00000000
         -5.31000000          0.00000000
         -5.30000000          0.00000000
         -5.29000000          0.00000000
         -5.28000000          0.00000000
         -5.27000000          0.00000000
         -5.26000000          0.00000000
         -5.25000000          0.00000000
         -5.24000000          0.00000000
         -5.23000000          0.00000000
         -5.22000000          0.00000000
         -5.21000000          0.00000000
         -5.20000000          0.00000000
         -5.19000000          0.00000000
         -5.18000000          0.00000000
         -5.17000000          0.00000000
         -5.16000000          0.00000000
         -5.15000000          0.00000000
         -5.14000000          0.00000000
         -5.13000000          0.00000000
         -5.12000000          0.00000000
         -5.11000000          0.00000000
         -5.10000000          0.00000000
         -5.09000000          0.00000000
         -5.08000000          0.00000000
         -5.07000000          0.00000000
         -5.06000000          0.00000000
         -5.05000000          0.00000000
         -5.04000000          0.00000000
         -5.03000000          0.00000000
         -5.02000000          0.00000000
         -5.01000000          0.00000000
         -5.00000000          0.00000000
         -4.99000000          0.00000000
         -4.98000000          6.07706455
         -4.97000000         49.81136967
         -4.96000000         78.28257180
         -4.95000000         51.44234320
         -4.94000000          0.00000000
         -4.93000000          0.00000000
         -4.92000000          0.00000000
         -4.91000000          0.00000000
         -4.90000000          0.00000000
         -4.89000000          0.00000000
         -4.88000000          0.00000000
         -4.87000000          0.00000000
         -4.86000000          0.00000000
         -4.85000000          0.00000000
         -4.84000000          0.00000000
         -4.83000000          0.00000000
         -4.82000000          0.00000000
         -4.81000000          0.00000000
         -4.80000000          0.00000000
         -4.79000000          0.00000000
         -4.78000000          0.00000000
         -4.77000000          0.00000000
         -4.76000000          0.00000000
         -4.75000000          0.00000000
         -4.74000000          0.00000000
         -4.73000000          0.00000000
         -4.72000000          0.00000000
         -4.71000000          0.00000000
         -4.70000000          0.00000000
         -4.69000000          0.00000000
         -4.68000000          0.00000000
         -4.67000000          0.00000000
         -4.66000000          0.00000000
         -4.65000000          0.00000000
         -4.64000000          0.00000000
         -4.63000000          0.00000000
         -4.62000000          0.00000000
         -4.61000000          0.00000000
         -4.60000000          0.00000000
         -4.59000000          0.00000000
         -4.58000000          0.00000000
         -4.57000000          0.00000000
         -4.56000000          0.00000000
         -4.55000000          0.00000000
         -4.54000000        225.08362092
         -4.53000000         66.03528897
         -4.52000000          0.00000000
         -4.51000000          0.00000000
         -4.50000000          0.00000000
         -4.49000000          0.00000000
         -4.48000000          0.00000000
         -4.47000000          0.00000000
         -4.46000000          0.00000000
         -4.45000000          0.00000000
         -4.44000000          0.00000000
         -4.43000000          0.00000000
         -4.42000000          0.00000000
         -4.41000000          0.00000000
         -4.40000000          0.00000000
         -4.39000000          0.00000000
         -4.38000000          0.00000000
         -4.37000000          0.00000000
         -4.36000000          0.00000000
         -4.35000000          0.00000000
         -4.34000000          0.00000000
         -4.33000000          0.00000000
         -4.32000000          0.00000000
         -4.31000000          0.00000000
         -4.30000000          0.00000000
         -4.29000000          0.00000000
         -4.28000000          0.00000000
         -4.27000000          0.00000000
         -4.26000000          0.00000000
         -4.25000000          0.00000000
         -4.24000000          0.00000000
         -4.23000000          0.00000000
         -4.22000000          0.00000000
         -4.21000000          0.00000000
         -4.20000000          0.00000000
         -4.19000000          0.00000000
         -4.18000000          0.00000000
         -4.17000000          0.00000000
         -4.16000000          0.00000000
         -4.15000000          0.00000000
         -4.14000000          0.00000000
         -4.13000000          0.00000000
         -4.12000000          0.00000000
         -4.11000000          0.00000000
         -4.10000000          0.00000000
         -4.09000000          0.00000000
         -4.08000000          0.00000000
         -4.07000000          3.05331874
         -4.06000000         34.74760178
         -4.05000000        203.05343974
         -4.04000000         27.08886031
         -4.03000000         77.02566199
         -4.02000000        247.93688305
         -4.01000000          0.00000000
         -4.00000000          0.00000000
         -3.99000000          0.00000000
         -3.98000000          0.00000000
         -3.97000000        157.36536698
         -3.96000000          0.00000000
         -3.95000000        109.17814402
         -3.94000000         84.29289721
         -3.93000000          0.00000000
         -3.92000000          0.00000000
         -3.91000000          0.00000000
         -3.90000000          0.00000000
         -3.89000000          0.00000000
         -3.88000000          0.00000000
         -3.87000000          0.00000000
         -3.86000000          0.00000000
         -3.85000000          0.00000000
         -3.84000000          0.00000000
         -3.83000000          0.00000000
         -3.82000000          0.00000000
         -3.81000000          0.00000000
         -3.80000000          0.00000000
         -3.79000000          0.00000000
         -3.78000000          0.00000000
         -3.77000000          0.00000000
         -3.76000000         20.08869714
         -3.75000000         52.46449438
         -3.74000000         80.31223792
         -3.73000000         35.55580754
         -3.72000000         55.16158801
         -3.71000000         82.26590518
         -3.70000000         49.92681151
         -3.69000000         84.30896576
         -3.68000000         77.67097689
         -3.67000000        114.42200152
         -3.66000000         43.99875146
         -3.65000000         30.21489680
         -3.64000000         76.47002070
         -3.63000000         32.14312256
         -3.62000000         83.21597135
         -3.61000000         71.72413960
         -3.60000000        118.31841495
         -3.59000000         69.54879259
         -3.58000000         66.30739448
         -3.57000000        161.48022414
         -3.56000000         36.19420443
         -3.55000000         94.22857520
         -3.54000000         30.57087566
         -3.53000000         82.04144788
         -3.52000000         96.11434938
         -3.51000000         35.03137438
         -3.50000000        119.84894527
         -3.49000000         42.34652214
         -3.48000000         66.69105292
         -3.47000000         84.26592555
         -3.46000000        108.38530900
         -3.45000000         33.56522617
         -3.44000000         29.44706444
         -3.43000000         51.05821269
         -3.42000000        110.15009055
         -3.41000000         78.51463536
         -3.40000000         79.05408655
         -3.39000000         69.85964754
         -3.38000000         49.65271463
         -3.37000000         59.25035650
         -3.36000000         90.50676765
         -3.35000000         42.20891934
         -3.34000000         22.93900305
         -3.33000000         56.50254618
         -3.32000000        120.45727738
         -3.31000000         38.06852702
         -3.30000000         26.04744927
         -3.29000000        149.01606146
         -3.28000000         82.24733132
         -3.27000000         36.24436191
         -3.26000000         38.61081162
         -3.25000000         19.21620002
         -3.24000000         94.04910445
         -3.23000000         61.43995080
         -3.22000000         85.06478532
         -3.21000000        105.49920981
         -3.20000000         42.15288108
         -3.19000000         38.49962593
         -3.18000000         28.72471005
         -3.17000000         40.81799410
         -3.16000000         54.67447873
         -3.15000000         58.84790924
         -3.14000000         58.28665423
         -3.13000000         74.10952397
         -3.12000000         71.97897298
         -3.11000000         39.96301746
         -3.10000000         48.21950397
         -3.09000000         59.67967409
         -3.08000000         65.92341622
         -3.07000000         60.55725001
         -3.06000000         54.48527674
         -3.05000000         63.01938535
         -3.04000000         63.28977299
         -3.03000000         82.40506868
         -3.02000000         60.93297068
         -3.01000000         85.40465131
         -3.00000000         86.09451211
         -2.99000000         69.09313433
         -2.98000000         65.47712176
         -2.97000000        104.35935316
         -2.96000000         82.31051014
         -2.95000000         87.92950848
         -2.94000000         85.20170417
         -2.93000000         65.43774411
         -2.92000000         87.87492086
         -2.91000000         95.50131964
         -2.90000000        110.98015749
         -2.89000000        133.86906040
         -2.88000000         59.47280320
         -2.87000000        115.78776887
         -2.86000000        123.97566597
         -2.85000000        107.03596357
         -2.84000000        114.52705717
         -2.83000000         40.03825618
         -2.82000000         99.25203790
         -2.81000000        103.51936918
         -2.80000000         94.14436328
         -2.79000000         75.08584818
         -2.78000000        109.59562049
         -2.77000000        103.06016643
         -2.76000000         72.83940811
         -2.75000000         57.57544181
         -2.74000000         41.12631126
         -2.73000000         87.11376766
         -2.72000000         83.14056791
         -2.71000000         89.92565488
         -2.70000000         58.71807327
         -2.69000000        104.46469349
         -2.68000000         82.30865143
         -2.67000000         35.87558297
         -2.66000000         82.03327153
         -2.65000000         74.00440562
         -2.64000000         56.57259946
         -2.63000000        119.26042227
         -2.62000000         63.17027286
         -2.61000000         61.05688628
         -2.60000000         65.96353659
         -2.59000000         67.06651137
         -2.58000000        105.81884917
         -2.57000000         58.67013060
         -2.56000000         98.90467197
         -2.55000000         87.77804661
         -2.54000000        121.86134867
         -2.53000000         96.88742667
         -2.52000000        123.61674882
         -2.51000000         83.07556931
         -2.50000000         85.11121071
         -2.49000000         21.68782264
         -2.48000000        169.48160473
         -2.47000000         52.77758091
         -2.46000000         55.08967394
         -2.45000000         66.44721033
         -2.44000000         55.17096166
         -2.43000000         72.31408001
         -2.42000000         91.02866937
         -2.41000000         79.41945190
         -2.40000000         55.65723113
         -2.39000000         35.40756881
         -2.38000000         55.81111557
         -2.37000000         45.79344953
         -2.36000000         51.17527594
         -2.35000000         68.19809972
         -2.34000000         75.64803526
         -2.33000000         22.66558742
         -2.32000000         24.66905121
         -2.31000000         31.73487289
         -2.30000000         55.25511956
         -2.29000000         41.13778943
         -2.28000000         97.90383556
         -2.27000000         89.63405529
         -2.26000000         57.91251732
         -2.25000000         37.87180922
         -2.24000000         28.83120271
         -2.23000000         35.03243544
         -2.22000000         53.97832654
         -2.21000000         34.47494240
         -2.20000000         66.16981263
         -2.19000000         63.72462309
         -2.18000000         28.17322482
         -2.17000000         76.09477024
         -2.16000000         51.51551541
         -2.15000000         23.85454629
         -2.14000000         62.73053245
         -2.13000000         58.09366467
         -2.12000000         31.05900431
         -2.11000000         17.80020881
         -2.10000000         34.68198887
         -2.09000000         39.42426161
         -2.08000000         40.23440743
         -2.07000000         38.61630471
         -2.06000000         71.37679113
         -2.05000000         51.56801166
         -2.04000000         37.47788433
         -2.03000000         28.32503254
         -2.02000000         33.48801542
         -2.01000000         29.13696336
         -2.00000000         25.12379075
         -1.99000000         22.00751173
         -1.98000000         21.05336306
         -1.97000000         25.11749166
         -1.96000000         25.30765270
         -1.95000000         27.82221792
         -1.94000000         30.33678314
         -1.93000000         29.85706751
         -1.92000000         41.72744090
         -1.91000000         15.71877075
         -1.90000000         15.46763465
         -1.89000000         30.08574533
         -1.88000000         47.66240729
         -1.87000000         20.48784436
         -1.86000000         59.50789518
         -1.85000000         71.56143947
         -1.84000000         69.10611764
         -1.83000000         35.74282227
         -1.82000000        112.62249196
         -1.81000000         40.28718752
         -1.80000000         56.46045440
         -1.79000000         71.03639243
         -1.78000000         56.71131794
         -1.77000000         20.37266342
         -1.76000000         17.66740629
         -1.75000000         15.38365200
         -1.74000000         27.38086352
         -1.73000000         69.99664812
         -1.72000000         45.91553301
         -1.71000000         23.51254436
         -1.70000000         14.17905437
         -1.69000000          6.72333402
         -1.68000000         14.46943792
         -1.67000000         68.95607150
         -1.66000000         29.58643761
         -1.65000000         33.61027828
         -1.64000000         40.57263420
         -1.63000000         20.02049151
         -1.62000000         13.07770429
         -1.61000000          6.97939293
         -1.60000000         14.35030130
         -1.59000000         56.27829891
         -1.58000000        134.48203938
         -1.57000000         19.60818247
         -1.56000000          0.00000000
         -1.55000000          4.97167814
         -1.54000000         17.98017713
         -1.53000000         30.98867613
         -1.52000000         44.21115376
         -1.51000000         40.47515687
         -1.50000000         29.17431940
         -1.49000000         34.33549533
         -1.48000000         36.79190424
         -1.47000000         35.07257575
         -1.46000000         47.46676219
         -1.45000000         29.62001124
         -1.44000000         21.62498852
         -1.43000000         17.93966630
         -1.42000000         18.04257622
         -1.41000000         16.65024661
         -1.40000000         19.15181007
         -1.39000000         29.58026095
         -1.38000000         27.27492581
         -1.37000000         24.80195553
         -1.36000000         22.32898525
         -1.35000000         21.41878025
         -1.34000000         20.62858743
         -1.33000000         19.89099243
         -1.32000000         47.24543559
         -1.31000000         42.63726482
         -1.30000000         30.70035020
         -1.29000000         23.86174126
         -1.28000000         22.59542889
         -1.27000000        155.43627738
         -1.26000000         31.40235835
         -1.25000000         19.95468259
         -1.24000000         21.62719089
         -1.23000000         28.80175831
         -1.22000000         42.97133647
         -1.21000000         41.96084484
         -1.20000000         18.93739700
         -1.19000000         24.78968912
         -1.18000000         30.02417499
         -1.17000000         25.65327202
         -1.16000000         22.27712278
         -1.15000000         20.20445250
         -1.14000000         18.35579043
         -1.13000000          0.00000000
         -1.12000000         19.52774640
         -1.11000000        161.00640203
         -1.10000000         14.50857967
         -1.09000000         62.12510571
         -1.08000000        104.83256016
         -1.07000000          3.30177570
         -1.06000000         47.05850487
         -1.05000000         21.49662379
         -1.04000000         56.23826778
         -1.03000000         55.30666769
         -1.02000000         50.20379441
         -1.01000000         51.98241028
         -1.00000000         64.57856288
         -0.99000000         57.81869331
         -0.98000000         70.49767875
         -0.97000000         70.09972102
         -0.96000000         84.46857910
         -0.95000000         80.29708983
         -0.94000000         73.65256393
         -0.93000000         65.94248946
         -0.92000000         65.64906215
         -0.91000000         71.86542438
         -0.90000000         70.28240266
         -0.89000000         66.99394392
         -0.88000000         58.29189933
         -0.87000000         82.23876058
         -0.86000000         66.08567041
         -0.85000000         53.60204794
         -0.84000000         55.92187426
         -0.83000000         39.26927358
         -0.82000000         29.72833817
         -0.81000000        107.31925172
         -0.80000000         48.30124985
         -0.79000000         52.23325568
         -0.78000000         44.09401052
         -0.77000000         42.67832877
         -0.76000000         54.28331712
         -0.75000000         65.88830547
         -0.74000000         13.31107808
         -0.73000000          9.99732098
         -0.72000000          8.72604007
         -0.71000000         31.00251409
         -0.70000000         45.22950275
         -0.69000000         33.82010480
         -0.68000000         56.05816577
         -0.67000000         32.42765762
         -0.66000000         22.53148471
         -0.65000000         14.46599810
         -0.64000000         28.04773172
         -0.63000000         47.55865634
         -0.62000000         34.33958123
         -0.61000000         28.66215960
         -0.60000000         11.36718977
         -0.59000000          9.46384298
         -0.58000000          7.56049620
         -0.57000000          5.83862586
         -0.56000000          3.44314272
         -0.55000000          2.60371261
         -0.54000000          4.23391673
         -0.53000000          5.92164446
         -0.52000000          7.60937219
         -0.51000000         20.33785354
         -0.50000000         31.65076497
         -0.49000000         30.73206022
         -0.48000000         25.52509411
         -0.47000000         24.25558827
         -0.46000000         83.31596407
         -0.45000000         23.90061647
         -0.44000000         11.78784301
         -0.43000000          5.66179209
         -0.42000000         12.07383122
         -0.41000000         13.94335708
         -0.40000000         15.61950674
         -0.39000000         17.29565640
         -0.38000000         49.53071177
         -0.37000000         23.04562559
         -0.36000000          9.90728901
         -0.35000000          8.44383212
         -0.34000000          8.36148480
         -0.33000000          8.27913749
         -0.32000000          8.19679018
         -0.31000000          0.00000000
         -0.30000000          0.00000000
         -0.29000000          0.00000000
         -0.28000000          0.00000000
         -0.27000000          0.00000000
         -0.26000000          0.00000000
         -0.25000000          0.00000000
         -0.24000000          0.00000000
         -0.23000000          0.00000000
         -0.22000000          0.00000000
         -0.21000000          0.00000000
         -0.20000000          0.00000000
         -0.19000000          0.00000000
         -0.18000000          0.00000000
         -0.17000000          0.00000000
         -0.16000000          0.00000000
         -0.15000000          0.00000000
         -0.14000000          0.00000000
         -0.13000000          0.00000000
         -0.12000000          0.00000000
         -0.11000000          0.00000000
         -0.10000000          0.00000000
         -0.09000000          0.00000000
         -0.08000000          0.00000000
         -0.07000000          0.00000000
         -0.06000000          0.00000000
         -0.05000000          0.00000000
         -0.04000000          0.00000000
         -0.03000000          0.00000000
         -0.02000000          0.00000000
         -0.01000000          0.00000000
          0.00000000          0.00000000
