# total density of states output by FHI-aims 
# The energy reference for this output is the vacuum level
#    Energy (eV)      DOS 
        -10.00000000         58.43301092
         -9.99000000         46.04239790
         -9.98000000         41.40135661
         -9.97000000         39.45002959
         -9.96000000         35.90134513
         -9.95000000         32.38210412
         -9.94000000         28.87307969
         -9.93000000         25.43466158
         -9.92000000         43.17557427
         -9.91000000         42.91948217
         -9.90000000         42.32321930
         -9.89000000         55.08214071
         -9.88000000         61.40325218
         -9.87000000         50.96059478
         -9.86000000         41.88147881
         -9.85000000         31.07729911
         -9.84000000         25.31767861
         -9.83000000         19.25509337
         -9.82000000         17.25773684
         -9.81000000         17.84890863
         -9.80000000         18.81808581
         -9.79000000         24.09888244
         -9.78000000         36.63247362
         -9.77000000         32.83724386
         -9.76000000         30.20139007
         -9.75000000        124.92217860
         -9.74000000         25.30860601
         -9.73000000         23.72387515
         -9.72000000         25.15083915
         -9.71000000         27.13052305
         -9.70000000         30.00824857
         -9.69000000         32.88597409
         -9.68000000         35.76369961
         -9.67000000         41.76530778
         -9.66000000         46.28101871
         -9.65000000         50.40615918
         -9.64000000         44.70291977
         -9.63000000         64.91175576
         -9.62000000         44.70951902
         -9.61000000         26.26119481
         -9.60000000         22.29134822
         -9.59000000         69.13617748
         -9.58000000         54.10727563
         -9.57000000         49.47923752
         -9.56000000         33.21503483
         -9.55000000         46.45457165
         -9.54000000         53.04965985
         -9.53000000        233.23640881
         -9.52000000        115.28779963
         -9.51000000         42.65340104
         -9.50000000         41.80716100
         -9.49000000        122.89964926
         -9.48000000        145.33688398
         -9.47000000         79.93147635
         -9.46000000        203.05610686
         -9.45000000         47.53688130
         -9.44000000         49.43626641
         -9.43000000         50.14094534
         -9.42000000         62.25693868
         -9.41000000         62.34142909
         -9.40000000         65.05845509
         -9.39000000         87.66452691
         -9.38000000         68.05291122
         -9.37000000         55.70711455
         -9.36000000         58.58757185
         -9.35000000        112.98827787
         -9.34000000         67.04659981
         -9.33000000         72.54494060
         -9.32000000         74.80710011
         -9.31000000         56.73892740
         -9.30000000         37.24427731
         -9.29000000         20.47318893
         -9.28000000         44.29859516
         -9.27000000         56.32430682
         -9.26000000         36.46312660
         -9.25000000         38.67027177
         -9.24000000         67.31142925
         -9.23000000         84.47951239
         -9.22000000         80.34381765
         -9.21000000         41.78178226
         -9.20000000         46.24564946
         -9.19000000         44.21070553
         -9.18000000         73.92685178
         -9.17000000         51.22060386
         -9.16000000         52.92011350
         -9.15000000         47.17476333
         -9.14000000         56.60267706
         -9.13000000         33.58799085
         -9.12000000        130.79075278
         -9.11000000         46.67638371
         -9.10000000          7.99528428
         -9.09000000         20.23804225
         -9.08000000         57.29134667
         -9.07000000         69.70444929
         -9.06000000         72.86719322
         -9.05000000         42.34942863
         -9.04000000         48.33016753
         -9.03000000         57.73789860
         -9.02000000         61.74936056
         -9.01000000         51.05713260
         -9.00000000         39.04800631
         -8.99000000         30.20240889
         -8.98000000        121.08970028
         -8.97000000         77.37142170
         -8.96000000         50.94401265
         -8.95000000         30.43598503
         -8.94000000         28.38671394
         -8.93000000         28.99376257
         -8.92000000         29.35524943
         -8.91000000         41.99424832
         -8.90000000         58.03502679
         -8.89000000         52.10996258
         -8.88000000         14.73748589
         -8.87000000         15.93960454
         -8.86000000         29.57635301
         -8.85000000         46.02986082
         -8.84000000         40.81414741
         -8.83000000         35.63862415
         -8.82000000         33.01995153
         -8.81000000         38.75160494
         -8.80000000         58.48901258
         -8.79000000         81.43248345
         -8.78000000         27.19998699
         -8.77000000         33.93203614
         -8.76000000         46.45832944
         -8.75000000         33.18763901
         -8.74000000         19.91694857
         -8.73000000          5.99972858
         -8.72000000          6.88769390
         -8.71000000          7.77565922
         -8.70000000          8.66362455
         -8.69000000         54.17411772
         -8.68000000         18.22278580
         -8.67000000         19.05853641
         -8.66000000         40.58425399
         -8.65000000         42.74561658
         -8.64000000         45.41448894
         -8.63000000         40.15125119
         -8.62000000         42.92000548
         -8.61000000         45.68875977
         -8.60000000         48.45751405
         -8.59000000         34.33722295
         -8.58000000         36.52673737
         -8.57000000         76.74812492
         -8.56000000         38.80500615
         -8.55000000         52.90008965
         -8.54000000         48.64820844
         -8.53000000         42.95918511
         -8.52000000         52.55095879
         -8.51000000         37.78624490
         -8.50000000         37.72463169
         -8.49000000         43.43153404
         -8.48000000         46.90718125
         -8.47000000         49.85755087
         -8.46000000         32.14979827
         -8.45000000         30.50051168
         -8.44000000         28.71759454
         -8.43000000         28.94207409
         -8.42000000         38.23980628
         -8.41000000         76.19376175
         -8.40000000         34.95604830
         -8.39000000         52.55054378
         -8.38000000         61.58167380
         -8.37000000         31.69934573
         -8.36000000         39.66766693
         -8.35000000         87.91545416
         -8.34000000         98.35315339
         -8.33000000         31.07050154
         -8.32000000        177.70530574
         -8.31000000         67.16057284
         -8.30000000         82.17409377
         -8.29000000         85.98506817
         -8.28000000         57.34022673
         -8.27000000         51.03304159
         -8.26000000         34.80833961
         -8.25000000         26.65669186
         -8.24000000        104.43188449
         -8.23000000         57.89483530
         -8.22000000         72.09575486
         -8.21000000        133.39642392
         -8.20000000         32.69103526
         -8.19000000         64.54367264
         -8.18000000         97.07136061
         -8.17000000         54.96151454
         -8.16000000         71.16846652
         -8.15000000         96.94437449
         -8.14000000         85.23069397
         -8.13000000         84.00458361
         -8.12000000         75.86807002
         -8.11000000         72.67189528
         -8.10000000         86.18933179
         -8.09000000         78.57573325
         -8.08000000         72.85875213
         -8.07000000         64.95438967
         -8.06000000         78.83279289
         -8.05000000         99.15697004
         -8.04000000         60.25204498
         -8.03000000         59.89596421
         -8.02000000         65.26567797
         -8.01000000         82.26278411
         -8.00000000         70.23656122
         -7.99000000        128.37819144
         -7.98000000         82.41165036
         -7.97000000         62.16775647
         -7.96000000         86.37369858
         -7.95000000         71.91842201
         -7.94000000         69.27472444
         -7.93000000         67.56912772
         -7.92000000         89.27918225
         -7.91000000         63.42580289
         -7.90000000         65.21807584
         -7.89000000         44.70289624
         -7.88000000         56.39371855
         -7.87000000         51.84880950
         -7.86000000         77.30446946
         -7.85000000        104.01791386
         -7.84000000         60.23042751
         -7.83000000         84.14792666
         -7.82000000         36.90481551
         -7.81000000         53.67433468
         -7.80000000         59.01264012
         -7.79000000         97.27880241
         -7.78000000         88.62390532
         -7.77000000         76.67521842
         -7.76000000         37.11921674
         -7.75000000         78.69165967
         -7.74000000         61.78343245
         -7.73000000         43.38625298
         -7.72000000         45.61064118
         -7.71000000         95.95431769
         -7.70000000         39.47941912
         -7.69000000        107.17929921
         -7.68000000         48.22702194
         -7.67000000         44.56093552
         -7.66000000         35.82920306
         -7.65000000         43.25921399
         -7.64000000         37.99585941
         -7.63000000         39.86208428
         -7.62000000         42.36991945
         -7.61000000         51.78388734
         -7.60000000         77.04238229
         -7.59000000        106.93912919
         -7.58000000         45.85186315
         -7.57000000         63.60098325
         -7.56000000         54.26129980
         -7.55000000         63.90190472
         -7.54000000         71.68970032
         -7.53000000         68.15273099
         -7.52000000         62.14126324
         -7.51000000         29.23628014
         -7.50000000         26.44482867
         -7.49000000         25.13517698
         -7.48000000         37.55730030
         -7.47000000         38.34629164
         -7.46000000         42.18591144
         -7.45000000         57.35248662
         -7.44000000         44.11099085
         -7.43000000         45.12535008
         -7.42000000         43.24867710
         -7.41000000         49.18028869
         -7.40000000         59.98114843
         -7.39000000         79.71697726
         -7.38000000         70.22583086
         -7.37000000         88.93956091
         -7.36000000         36.03222112
         -7.35000000         34.13525848
         -7.34000000         45.58166750
         -7.33000000         53.23047800
         -7.32000000         61.45735106
         -7.31000000         56.70880722
         -7.30000000         51.39626600
         -7.29000000         61.34810635
         -7.28000000         88.34821635
         -7.27000000         32.36950068
         -7.26000000         87.10897688
         -7.25000000         81.47949297
         -7.24000000         57.10393852
         -7.23000000         30.37179296
         -7.22000000         24.68034959
         -7.21000000         28.58784124
         -7.20000000         43.67870739
         -7.19000000         58.91520771
         -7.18000000         64.78741706
         -7.17000000         65.78710886
         -7.16000000         65.68627528
         -7.15000000         62.30029385
         -7.14000000         25.27016545
         -7.13000000         45.08093013
         -7.12000000         67.57322490
         -7.11000000         30.26586311
         -7.10000000         33.33372212
         -7.09000000         36.40158114
         -7.08000000         57.03843903
         -7.07000000         50.58096374
         -7.06000000         30.08747935
         -7.05000000         21.65494561
         -7.04000000        112.32617890
         -7.03000000         98.48772344
         -7.02000000         66.16551956
         -7.01000000         71.22188664
         -7.00000000         66.78905004
         -6.99000000         59.52142267
         -6.98000000         56.76177057
         -6.97000000         59.36757397
         -6.96000000          7.36375923
         -6.95000000          9.10789896
         -6.94000000         50.11278311
         -6.93000000         65.59340901
         -6.92000000         45.96331537
         -6.91000000         17.33450937
         -6.90000000         40.68651843
         -6.89000000         30.67280917
         -6.88000000         40.14188713
         -6.87000000         47.11013630
         -6.86000000         48.03784140
         -6.85000000         54.33308957
         -6.84000000         43.75526651
         -6.83000000         44.48446778
         -6.82000000         50.48686307
         -6.81000000         41.71720573
         -6.80000000        126.03993164
         -6.79000000         55.66657051
         -6.78000000         50.55536170
         -6.77000000         45.30008480
         -6.76000000         42.63040342
         -6.75000000         44.23419215
         -6.74000000         62.16913598
         -6.73000000         67.06649323
         -6.72000000         43.57886756
         -6.71000000         27.99344645
         -6.70000000         39.20628061
         -6.69000000        115.24138875
         -6.68000000        134.03602762
         -6.67000000         57.59063231
         -6.66000000         18.19975500
         -6.65000000         19.63748941
         -6.64000000        117.43543905
         -6.63000000         77.45885309
         -6.62000000         36.66187853
         -6.61000000         37.91581455
         -6.60000000         37.25593640
         -6.59000000         40.18123661
         -6.58000000         47.46251587
         -6.57000000         57.01392812
         -6.56000000         63.49472091
         -6.55000000         70.65336345
         -6.54000000         54.60283065
         -6.53000000         64.42617872
         -6.52000000         75.99164124
         -6.51000000         51.93915699
         -6.50000000         38.95855094
         -6.49000000         29.97861385
         -6.48000000         42.39311453
         -6.47000000         54.04556448
         -6.46000000         55.60017615
         -6.45000000         79.04514402
         -6.44000000         27.78895358
         -6.43000000         40.12091903
         -6.42000000         40.89615844
         -6.41000000          7.84062923
         -6.40000000         28.60009060
         -6.39000000        125.54716075
         -6.38000000          0.00000000
         -6.37000000         54.89713364
         -6.36000000         80.38420389
         -6.35000000         48.09871652
         -6.34000000        102.27044606
         -6.33000000         67.33671013
         -6.32000000         30.08175782
         -6.31000000         26.05324395
         -6.30000000         28.46969013
         -6.29000000         31.24464926
         -6.28000000         32.99884526
         -6.27000000         34.60286866
         -6.26000000         54.28847480
         -6.25000000         59.86714309
         -6.24000000         43.93895298
         -6.23000000         19.84009026
         -6.22000000          4.25132426
         -6.21000000          0.00000000
         -6.20000000          8.44938500
         -6.19000000         33.02305103
         -6.18000000         57.59671705
         -6.17000000         89.02388170
         -6.16000000         60.40434307
         -6.15000000         68.11636576
         -6.14000000         28.80947891
         -6.13000000         26.09939907
         -6.12000000         27.02114896
         -6.11000000          0.00000000
         -6.10000000          4.77263779
         -6.09000000         29.85345716
         -6.08000000         52.50405203
         -6.07000000         26.43504856
         -6.06000000         27.00860975
         -6.05000000         27.76182707
         -6.04000000         21.72118779
         -6.03000000         15.68054851
         -6.02000000          0.00000000
         -6.01000000          0.00000000
         -6.00000000          0.00000000
         -5.99000000         27.65703593
         -5.98000000         36.93001928
         -5.97000000         45.97732725
         -5.96000000         29.84375998
         -5.95000000         27.85273585
         -5.94000000          3.73705093
         -5.93000000         15.52725484
         -5.92000000         17.77509847
         -5.91000000         20.02294209
         -5.90000000         28.98389439
         -5.89000000         42.23345312
         -5.88000000        150.71653679
         -5.87000000          0.00000000
         -5.86000000          0.00000000
         -5.85000000          0.00000000
         -5.84000000          0.00000000
         -5.83000000          0.00000000
         -5.82000000          0.00000000
         -5.81000000          0.00000000
         -5.80000000          0.00000000
         -5.79000000          0.00000000
         -5.78000000          0.00000000
         -5.77000000          0.00000000
         -5.76000000          0.00000000
         -5.75000000          0.00000000
         -5.74000000          0.00000000
         -5.73000000          0.00000000
         -5.72000000          0.00000000
         -5.71000000          0.00000000
         -5.70000000          0.00000000
         -5.69000000          0.00000000
         -5.68000000          0.00000000
         -5.67000000          0.00000000
         -5.66000000          0.00000000
         -5.65000000          0.00000000
         -5.64000000          0.00000000
         -5.63000000          0.00000000
         -5.62000000          0.00000000
         -5.61000000          0.00000000
         -5.60000000          0.00000000
         -5.59000000          0.00000000
         -5.58000000          0.00000000
         -5.57000000          0.00000000
         -5.56000000          0.00000000
         -5.55000000         27.76816141
         -5.54000000         97.96996968
         -5.53000000        117.39765802
         -5.52000000          0.00000000
         -5.51000000          0.00000000
         -5.50000000          0.00000000
         -5.49000000          0.00000000
         -5.48000000          0.00000000
         -5.47000000          0.00000000
         -5.46000000          0.00000000
         -5.45000000          0.00000000
         -5.44000000          0.00000000
         -5.43000000          0.00000000
         -5.42000000          0.00000000
         -5.41000000          0.00000000
         -5.40000000          0.00000000
         -5.39000000          0.00000000
         -5.38000000          0.00000000
         -5.37000000          0.00000000
         -5.36000000          0.00000000
         -5.35000000          0.00000000
         -5.34000000          0.00000000
         -5.33000000          0.00000000
         -5.32000000          0.00000000
         -5.31000000          0.00000000
         -5.30000000          0.00000000
         -5.29000000          0.00000000
         -5.28000000          0.00000000
         -5.27000000          0.00000000
         -5.26000000          0.00000000
         -5.25000000          0.00000000
         -5.24000000          0.00000000
         -5.23000000          0.00000000
         -5.22000000          0.00000000
         -5.21000000          0.00000000
         -5.20000000          0.00000000
         -5.19000000          0.00000000
         -5.18000000          0.00000000
         -5.17000000          0.00000000
         -5.16000000          0.00000000
         -5.15000000          0.00000000
         -5.14000000          0.00000000
         -5.13000000          0.00000000
         -5.12000000          0.00000000
         -5.11000000          0.00000000
         -5.10000000          0.00000000
         -5.09000000          0.00000000
         -5.08000000          0.00000000
         -5.07000000          0.00000000
         -5.06000000          0.00000000
         -5.05000000          0.00000000
         -5.04000000          0.00000000
         -5.03000000          0.00000000
         -5.02000000          0.00000000
         -5.01000000          0.00000000
         -5.00000000          0.00000000
         -4.99000000          0.00000000
         -4.98000000         26.66225923
         -4.97000000         60.21058955
         -4.96000000        114.98277669
         -4.95000000          0.00000000
         -4.94000000          0.00000000
         -4.93000000          0.00000000
         -4.92000000          0.00000000
         -4.91000000          0.00000000
         -4.90000000          0.00000000
         -4.89000000          0.00000000
         -4.88000000          0.00000000
         -4.87000000          0.00000000
         -4.86000000          0.00000000
         -4.85000000          0.00000000
         -4.84000000          0.00000000
         -4.83000000          0.00000000
         -4.82000000          0.00000000
         -4.81000000          0.00000000
         -4.80000000          0.00000000
         -4.79000000          0.00000000
         -4.78000000          0.00000000
         -4.77000000          0.00000000
         -4.76000000          0.00000000
         -4.75000000          0.00000000
         -4.74000000          0.00000000
         -4.73000000          0.00000000
         -4.72000000          0.00000000
         -4.71000000          0.00000000
         -4.70000000          0.00000000
         -4.69000000          0.00000000
         -4.68000000          0.00000000
         -4.67000000          0.00000000
         -4.66000000          0.00000000
         -4.65000000          0.00000000
         -4.64000000          0.00000000
         -4.63000000          0.00000000
         -4.62000000          0.00000000
         -4.61000000          0.00000000
         -4.60000000          0.00000000
         -4.59000000          0.00000000
         -4.58000000          0.00000000
         -4.57000000          0.00000000
         -4.56000000          0.00000000
         -4.55000000          0.00000000
         -4.54000000        184.11741954
         -4.53000000         25.41038339
         -4.52000000          0.00000000
         -4.51000000          0.00000000
         -4.50000000          0.00000000
         -4.49000000          0.00000000
         -4.48000000          0.00000000
         -4.47000000          0.00000000
         -4.46000000          0.00000000
         -4.45000000          0.00000000
         -4.44000000          0.00000000
         -4.43000000          0.00000000
         -4.42000000          0.00000000
         -4.41000000          0.00000000
         -4.40000000          0.00000000
         -4.39000000          0.00000000
         -4.38000000          0.00000000
         -4.37000000          0.00000000
         -4.36000000          0.00000000
         -4.35000000          0.00000000
         -4.34000000          0.00000000
         -4.33000000          0.00000000
         -4.32000000          0.00000000
         -4.31000000          0.00000000
         -4.30000000          0.00000000
         -4.29000000          0.00000000
         -4.28000000          0.00000000
         -4.27000000          0.00000000
         -4.26000000          0.00000000
         -4.25000000          0.00000000
         -4.24000000          0.00000000
         -4.23000000          0.00000000
         -4.22000000          0.00000000
         -4.21000000          0.00000000
         -4.20000000          0.00000000
         -4.19000000          0.00000000
         -4.18000000          0.00000000
         -4.17000000          0.00000000
         -4.16000000          0.00000000
         -4.15000000          0.00000000
         -4.14000000          0.00000000
         -4.13000000          0.00000000
         -4.12000000          0.00000000
         -4.11000000          0.00000000
         -4.10000000          0.00000000
         -4.09000000          0.00000000
         -4.08000000          0.00000000
         -4.07000000          0.00000000
         -4.06000000         41.44397258
         -4.05000000         97.86631071
         -4.04000000         72.76855425
         -4.03000000         67.53629741
         -4.02000000        185.13683208
         -4.01000000          0.00000000
         -4.00000000          0.00000000
         -3.99000000          0.00000000
         -3.98000000          0.00000000
         -3.97000000        119.32188802
         -3.96000000          0.00000000
         -3.95000000         89.77526701
         -3.94000000         31.28608186
         -3.93000000          0.00000000
         -3.92000000          0.00000000
         -3.91000000          0.00000000
         -3.90000000          0.00000000
         -3.89000000          0.00000000
         -3.88000000          0.00000000
         -3.87000000          0.00000000
         -3.86000000          0.00000000
         -3.85000000          0.00000000
         -3.84000000          0.00000000
         -3.83000000          0.00000000
         -3.82000000          0.00000000
         -3.81000000          0.00000000
         -3.80000000          0.00000000
         -3.79000000          0.00000000
         -3.78000000          0.00000000
         -3.77000000          0.00000000
         -3.76000000         57.50949708
         -3.75000000         62.77853898
         -3.74000000         67.13614999
         -3.73000000         50.08147827
         -3.72000000         57.03994178
         -3.71000000         63.07313942
         -3.70000000         40.92865433
         -3.69000000         75.03410691
         -3.68000000        140.14008766
         -3.67000000        153.14507335
         -3.66000000         37.08607320
         -3.65000000         46.61293995
         -3.64000000         66.20687306
         -3.63000000         34.25658009
         -3.62000000         80.09530841
         -3.61000000         77.76595952
         -3.60000000        106.49726493
         -3.59000000         33.73342239
         -3.58000000         78.71820070
         -3.57000000        157.04441757
         -3.56000000         52.64941805
         -3.55000000         98.40469373
         -3.54000000          0.00000000
         -3.53000000         97.19500171
         -3.52000000         84.80003131
         -3.51000000         28.59398521
         -3.50000000         87.68466243
         -3.49000000         34.24439245
         -3.48000000        106.49335542
         -3.47000000        120.32620317
         -3.46000000         60.05679133
         -3.45000000         32.67967256
         -3.44000000         26.44871747
         -3.43000000         94.49769689
         -3.42000000        109.27286348
         -3.41000000         77.87901519
         -3.40000000         63.19476538
         -3.39000000         72.54980441
         -3.38000000         44.63729519
         -3.37000000         68.38463444
         -3.36000000        102.10789340
         -3.35000000         35.75864870
         -3.34000000         21.12851543
         -3.33000000         76.01636331
         -3.32000000        102.68096187
         -3.31000000          6.96001982
         -3.30000000         22.86552026
         -3.29000000         44.31781156
         -3.28000000         99.26285321
         -3.27000000         37.11731799
         -3.26000000         38.68602758
         -3.25000000         46.65657121
         -3.24000000        136.99828796
         -3.23000000          4.49644339
         -3.22000000         83.61148426
         -3.21000000        125.06856450
         -3.20000000         41.54737711
         -3.19000000         33.32164053
         -3.18000000         40.31067089
         -3.17000000         41.41123672
         -3.16000000         52.89167995
         -3.15000000         54.45364608
         -3.14000000         53.19164635
         -3.13000000         79.69451657
         -3.12000000         41.31165302
         -3.11000000         42.12413895
         -3.10000000         51.20036847
         -3.09000000         61.58664312
         -3.08000000         56.96367583
         -3.07000000         60.26575072
         -3.06000000         53.34770071
         -3.05000000         57.43218973
         -3.04000000         60.82332838
         -3.03000000         84.26147750
         -3.02000000         58.00645386
         -3.01000000         74.61462579
         -3.00000000        115.35847826
         -2.99000000         79.53128578
         -2.98000000        106.27154740
         -2.97000000         88.09593899
         -2.96000000        117.08979979
         -2.95000000        108.39854266
         -2.94000000         79.82238469
         -2.93000000         38.84982419
         -2.92000000         98.29626416
         -2.91000000         48.30600288
         -2.90000000         25.71920348
         -2.89000000        128.10465530
         -2.88000000         93.29820031
         -2.87000000        117.06601827
         -2.86000000        134.34120405
         -2.85000000        198.35489002
         -2.84000000         41.47307724
         -2.83000000         28.26050543
         -2.82000000        150.45978112
         -2.81000000        108.27054038
         -2.80000000        108.48019871
         -2.79000000         98.47802238
         -2.78000000        118.48675413
         -2.77000000         93.27337073
         -2.76000000         60.63732600
         -2.75000000         79.30230566
         -2.74000000         74.75721538
         -2.73000000         73.53514009
         -2.72000000         52.88963323
         -2.71000000         82.70630540
         -2.70000000         39.48847385
         -2.69000000         61.53331680
         -2.68000000         41.51655720
         -2.67000000         33.03479278
         -2.66000000         40.67252956
         -2.65000000         83.16433701
         -2.64000000         88.48014567
         -2.63000000        175.50779630
         -2.62000000         33.63858489
         -2.61000000         45.37270327
         -2.60000000         76.05604993
         -2.59000000        122.68131585
         -2.58000000         65.59518125
         -2.57000000         73.46502830
         -2.56000000        103.28446032
         -2.55000000        148.10937421
         -2.54000000         93.01777922
         -2.53000000        148.81235487
         -2.52000000         84.40395054
         -2.51000000         68.37180386
         -2.50000000         49.29423940
         -2.49000000         45.30102595
         -2.48000000        109.97142373
         -2.47000000         21.77754230
         -2.46000000         16.40167584
         -2.45000000        106.79915028
         -2.44000000         67.07481436
         -2.43000000         77.56450116
         -2.42000000         78.84518306
         -2.41000000         75.50063402
         -2.40000000        113.80451758
         -2.39000000         55.40362441
         -2.38000000         33.53446095
         -2.37000000         25.36628962
         -2.36000000         26.54984709
         -2.35000000         80.33913012
         -2.34000000         65.60543826
         -2.33000000          5.60125168
         -2.32000000         40.09767946
         -2.31000000         44.47428262
         -2.30000000         34.83675210
         -2.29000000         93.71523917
         -2.28000000         97.57341180
         -2.27000000         77.28125470
         -2.26000000         25.89140068
         -2.25000000         21.70599157
         -2.24000000         27.04582342
         -2.23000000        109.78473079
         -2.22000000         24.32135942
         -2.21000000         82.41655980
         -2.20000000         85.76716290
         -2.19000000          0.00000000
         -2.18000000        106.03944625
         -2.17000000         24.95987574
         -2.16000000         18.68974315
         -2.15000000         27.89579122
         -2.14000000         43.27121621
         -2.13000000         85.58447869
         -2.12000000         14.61960809
         -2.11000000         34.87762734
         -2.10000000         41.01629419
         -2.09000000         49.32086428
         -2.08000000         50.83778436
         -2.07000000         52.35470444
         -2.06000000         59.71199984
         -2.05000000         43.71643056
         -2.04000000         37.03773189
         -2.03000000         24.01112030
         -2.02000000         27.53594560
         -2.01000000         19.78984844
         -2.00000000         13.85691077
         -1.99000000         26.71313621
         -1.98000000         22.68900101
         -1.97000000         25.81976744
         -1.96000000         28.95053386
         -1.95000000         29.82369620
         -1.94000000         27.53859955
         -1.93000000         47.17236368
         -1.92000000         14.76719564
         -1.91000000         14.64408966
         -1.90000000         37.88722329
         -1.89000000         37.57013254
         -1.88000000         18.80048014
         -1.87000000         42.49797472
         -1.86000000         81.28116863
         -1.85000000         61.50101613
         -1.84000000         61.75595028
         -1.83000000         59.54192124
         -1.82000000         46.37325027
         -1.81000000         66.35255291
         -1.80000000         99.25615399
         -1.79000000         40.73339511
         -1.78000000         16.62766191
         -1.77000000         15.16637919
         -1.76000000         14.51717402
         -1.75000000         15.26657016
         -1.74000000         52.82575424
         -1.73000000         49.30382541
         -1.72000000         25.68302645
         -1.71000000         16.40156859
         -1.70000000          7.13177911
         -1.69000000          5.91127420
         -1.68000000         35.35393180
         -1.67000000         33.55561894
         -1.66000000         29.59707690
         -1.65000000         36.92413143
         -1.64000000        131.19897787
         -1.63000000         15.13865055
         -1.62000000          9.58420603
         -1.61000000          4.32292643
         -1.60000000        125.89897908
         -1.59000000        102.81333908
         -1.58000000         28.46834913
         -1.57000000          2.20778230
         -1.56000000          1.59957462
         -1.55000000         14.07266847
         -1.54000000         26.54576232
         -1.53000000         38.89611778
         -1.52000000         42.29763242
         -1.51000000         32.10895677
         -1.50000000         29.59523761
         -1.49000000         38.39358190
         -1.48000000         36.14668647
         -1.47000000         40.72693791
         -1.46000000         31.05696029
         -1.45000000         23.84555067
         -1.44000000         19.46166406
         -1.43000000         17.57716045
         -1.42000000         16.17278323
         -1.41000000         15.11106270
         -1.40000000         24.14472240
         -1.39000000         32.86194408
         -1.38000000         26.12322609
         -1.37000000         22.63843670
         -1.36000000         21.79821734
         -1.35000000         21.09124732
         -1.34000000         20.38427731
         -1.33000000         20.14201841
         -1.32000000         52.37356414
         -1.31000000         36.88316803
         -1.30000000         24.30716808
         -1.29000000         23.06545005
         -1.28000000         50.94796410
         -1.27000000         18.02005505
         -1.26000000         19.53116543
         -1.25000000         21.04227582
         -1.24000000         24.65266529
         -1.23000000         33.76085758
         -1.22000000         58.54557257
         -1.21000000         45.07339518
         -1.20000000         20.76726382
         -1.19000000         29.55958677
         -1.18000000         27.62657337
         -1.17000000         23.55297987
         -1.16000000         21.08202514
         -1.15000000         19.00207930
         -1.14000000          0.00000000
         -1.13000000          0.00000000
         -1.12000000        111.12612157
         -1.11000000         72.82266764
         -1.10000000         38.13199569
         -1.09000000        140.08120694
         -1.08000000          0.00000000
         -1.07000000         57.90110079
         -1.06000000         30.78830092
         -1.05000000         38.78377967
         -1.04000000         57.82664591
         -1.03000000         52.99137639
         -1.02000000         48.88506071
         -1.01000000         72.18614248
         -1.00000000         48.99537263
         -0.99000000         66.67594522
         -0.98000000         67.16268825
         -0.97000000         77.49354215
         -0.96000000         91.17644435
         -0.95000000         71.34660068
         -0.94000000         80.35058621
         -0.93000000         67.92821595
         -0.92000000         65.17605321
         -0.91000000         77.24042655
         -0.90000000         69.87576063
         -0.89000000         61.34903799
         -0.88000000         83.18981082
         -0.87000000         72.80266407
         -0.86000000         57.71118178
         -0.85000000         52.12977434
         -0.84000000         47.91785310
         -0.83000000         29.85678185
         -0.82000000         78.86672657
         -0.81000000         35.47568469
         -0.80000000         44.74291745
         -0.79000000         50.80060918
         -0.78000000         39.40964717
         -0.77000000         50.78884579
         -0.76000000         62.16804442
         -0.75000000         13.60876066
         -0.74000000         10.82524402
         -0.73000000          8.04172737
         -0.72000000          5.43702612
         -0.71000000         44.41846830
         -0.70000000         41.63968049
         -0.69000000         36.10723175
         -0.68000000         32.52361505
         -0.67000000         27.61470166
         -0.66000000         22.21974035
         -0.65000000         18.00664460
         -0.64000000         55.48262996
         -0.63000000         40.79692603
         -0.62000000         26.11122210
         -0.61000000         20.70491913
         -0.60000000         15.79756159
         -0.59000000         16.59173958
         -0.58000000          0.54951947
         -0.57000000          1.19646535
         -0.56000000          1.84341122
         -0.55000000          2.99607065
         -0.54000000          4.19083606
         -0.53000000          5.38560147
         -0.52000000          6.58036688
         -0.51000000          7.77513229
         -0.50000000          8.96989770
         -0.49000000         77.99388558
         -0.48000000         52.49606828
         -0.47000000         30.45275971
         -0.46000000         25.49430044
         -0.45000000         20.53584118
         -0.44000000         17.58044936
         -0.43000000         14.43118563
         -0.42000000         12.83471284
         -0.41000000         13.90604120
         -0.40000000         15.69645629
         -0.39000000         17.48687138
         -0.38000000         18.97790909
         -0.37000000         20.59446682
         -0.36000000         22.25773136
         -0.35000000         41.67439292
         -0.34000000          0.00000000
         -0.33000000          0.00000000
         -0.32000000          0.00000000
         -0.31000000          0.00000000
         -0.30000000          0.00000000
         -0.29000000          0.00000000
         -0.28000000          0.00000000
         -0.27000000          0.00000000
         -0.26000000          0.00000000
         -0.25000000          0.00000000
         -0.24000000          0.00000000
         -0.23000000          0.00000000
         -0.22000000          0.00000000
         -0.21000000          0.00000000
         -0.20000000          0.00000000
         -0.19000000          0.00000000
         -0.18000000          0.00000000
         -0.17000000          0.00000000
         -0.16000000          0.00000000
         -0.15000000          0.00000000
         -0.14000000          0.00000000
         -0.13000000          0.00000000
         -0.12000000          0.00000000
         -0.11000000          0.00000000
         -0.10000000          0.00000000
         -0.09000000          0.00000000
         -0.08000000          0.00000000
         -0.07000000          0.00000000
         -0.06000000          0.00000000
         -0.05000000          0.00000000
         -0.04000000          0.00000000
         -0.03000000          0.00000000
         -0.02000000          0.00000000
         -0.01000000          0.00000000
          0.00000000          0.00000000
