# total density of states output by FHI-aims 
# The energy reference for this output is the vacuum level
#    Energy (eV)      DOS 
        -10.00000000        149.59701337
         -9.99000000        295.53512781
         -9.98000000        120.48121527
         -9.97000000         97.48734958
         -9.96000000        134.43636120
         -9.95000000         22.50880700
         -9.94000000         33.35142673
         -9.93000000         44.19404646
         -9.92000000         55.03666619
         -9.91000000         81.54856769
         -9.90000000        136.50726283
         -9.89000000        111.38674083
         -9.88000000        106.59285006
         -9.87000000        253.72532724
         -9.86000000        183.16845721
         -9.85000000        211.30330952
         -9.84000000        170.76934592
         -9.83000000        344.71786667
         -9.82000000        124.93151342
         -9.81000000         44.73273552
         -9.80000000         63.78758890
         -9.79000000        215.32431307
         -9.78000000        219.88489142
         -9.77000000         85.50046259
         -9.76000000         77.89715956
         -9.75000000         87.62421555
         -9.74000000         97.35127153
         -9.73000000         94.32699280
         -9.72000000         75.99233122
         -9.71000000         57.65766964
         -9.70000000         91.53474146
         -9.69000000        202.16102260
         -9.68000000         25.47807509
         -9.67000000         23.92300235
         -9.66000000         22.36792961
         -9.65000000         20.81285687
         -9.64000000         19.25778412
         -9.63000000        148.03128201
         -9.62000000         76.67505492
         -9.61000000         78.58906494
         -9.60000000         80.50307495
         -9.59000000         56.05720555
         -9.58000000        198.07377937
         -9.57000000         23.16005183
         -9.56000000         20.12600236
         -9.55000000         17.47198155
         -9.54000000         15.97543466
         -9.53000000         18.33749054
         -9.52000000         21.14313119
         -9.51000000         23.94877183
         -9.50000000         26.75441248
         -9.49000000         20.19614833
         -9.48000000         20.88272203
         -9.47000000         21.56929572
         -9.46000000         22.25586942
         -9.45000000         35.50713058
         -9.44000000         49.73835685
         -9.43000000         49.54577633
         -9.42000000         45.38444182
         -9.41000000         36.39491216
         -9.40000000         22.59272317
         -9.39000000         22.96790133
         -9.38000000         40.09063391
         -9.37000000         32.14704484
         -9.36000000         26.26909296
         -9.35000000         25.30598935
         -9.34000000         28.61196838
         -9.33000000         98.65190391
         -9.32000000         75.44101389
         -9.31000000         64.19143275
         -9.30000000         61.25573124
         -9.29000000         58.32002974
         -9.28000000         55.38432823
         -9.27000000         53.75811960
         -9.26000000        122.16155222
         -9.25000000         71.74297996
         -9.24000000         60.46038526
         -9.23000000        104.42038242
         -9.22000000        207.77389116
         -9.21000000        223.48201560
         -9.20000000        184.08023658
         -9.19000000         83.28996937
         -9.18000000        111.65714329
         -9.17000000        180.09187736
         -9.16000000        172.10729350
         -9.15000000        227.97498404
         -9.14000000        305.90684146
         -9.13000000        207.52534914
         -9.12000000        204.37359578
         -9.11000000        118.28390540
         -9.10000000         25.21189616
         -9.09000000         49.38288365
         -9.08000000         39.88195218
         -9.07000000         31.85565407
         -9.06000000         34.75902623
         -9.05000000         59.02225387
         -9.04000000         80.35930706
         -9.03000000        108.85683285
         -9.02000000        178.82969899
         -9.01000000        103.72953451
         -9.00000000        162.97209348
         -8.99000000         54.58296356
         -8.98000000         51.43867327
         -8.97000000         48.47312088
         -8.96000000         45.50756848
         -8.95000000         42.54201609
         -8.94000000         39.57646369
         -8.93000000         36.61091130
         -8.92000000         33.64535890
         -8.91000000         72.78898220
         -8.90000000         46.16119904
         -8.89000000        119.98344210
         -8.88000000        111.88657214
         -8.87000000         65.80461493
         -8.86000000         31.49477147
         -8.85000000         27.03667437
         -8.84000000         28.26393012
         -8.83000000         29.49118587
         -8.82000000         30.71844163
         -8.81000000         37.30739123
         -8.80000000         29.16589923
         -8.79000000         18.24823095
         -8.78000000         16.94436602
         -8.77000000         15.64050109
         -8.76000000         14.33663616
         -8.75000000         13.03277123
         -8.74000000         11.72890630
         -8.73000000         10.42504137
         -8.72000000          9.12117645
         -8.71000000          7.81731152
         -8.70000000        153.66583350
         -8.69000000         83.62641188
         -8.68000000         44.64111585
         -8.67000000         48.22816859
         -8.66000000         55.12068218
         -8.65000000         53.42211988
         -8.64000000        113.14936785
         -8.63000000         44.81446146
         -8.62000000         57.03352154
         -8.61000000         79.66098158
         -8.60000000         42.74877494
         -8.59000000         36.21096161
         -8.58000000         35.33143610
         -8.57000000         34.45191059
         -8.56000000         35.15165370
         -8.55000000         35.91313901
         -8.54000000         36.67462432
         -8.53000000         40.12008057
         -8.52000000         42.47086256
         -8.51000000         42.23474064
         -8.50000000         30.37089505
         -8.49000000         14.82778682
         -8.48000000          5.63635096
         -8.47000000          5.43690040
         -8.46000000          6.13346567
         -8.45000000         56.20841943
         -8.44000000         48.95306721
         -8.43000000         62.27847055
         -8.42000000         51.35453934
         -8.41000000         28.98743053
         -8.40000000         22.62798527
         -8.39000000         23.06138554
         -8.38000000         23.55689487
         -8.37000000         25.15591874
         -8.36000000         26.75494261
         -8.35000000         28.35396648
         -8.34000000         29.95299035
         -8.33000000         31.55201422
         -8.32000000         33.15103809
         -8.31000000         34.75006196
         -8.30000000         83.65786229
         -8.29000000         28.30983875
         -8.28000000         36.10412526
         -8.27000000         17.47558688
         -8.26000000         17.23151363
         -8.25000000         16.98744039
         -8.24000000         17.04707948
         -8.23000000         21.27709896
         -8.22000000         50.77522200
         -8.21000000         45.45952484
         -8.20000000         54.81297080
         -8.19000000         70.96049758
         -8.18000000         76.19441534
         -8.17000000         91.60505483
         -8.16000000         54.48899318
         -8.15000000        188.50294603
         -8.14000000        130.75206478
         -8.13000000         90.07279190
         -8.12000000         64.24378643
         -8.11000000         66.83898700
         -8.10000000         69.43418757
         -8.09000000         62.07610020
         -8.08000000         30.32784969
         -8.07000000         23.91334708
         -8.06000000         23.46773068
         -8.05000000         23.05280758
         -8.04000000         39.29659896
         -8.03000000         36.69307215
         -8.02000000         76.44718456
         -8.01000000         66.48108482
         -8.00000000         56.51498507
         -7.99000000         46.54888532
         -7.98000000         37.51195123
         -7.97000000         41.03741262
         -7.96000000         47.67377793
         -7.95000000        103.24914037
         -7.94000000         90.91394693
         -7.93000000         86.06391878
         -7.92000000         91.51896353
         -7.91000000         96.31968645
         -7.90000000        103.19794801
         -7.89000000        137.34291576
         -7.88000000        280.03560233
         -7.87000000        201.76616719
         -7.86000000        210.82321696
         -7.85000000        148.00672296
         -7.84000000        123.57871488
         -7.83000000        127.47909873
         -7.82000000        150.80998164
         -7.81000000         61.85785511
         -7.80000000         61.26608196
         -7.79000000         66.79205567
         -7.78000000         72.31802939
         -7.77000000         77.84400311
         -7.76000000        111.59645675
         -7.75000000        185.95692096
         -7.74000000         80.82044960
         -7.73000000         47.23174154
         -7.72000000         50.85710638
         -7.71000000         65.38849224
         -7.70000000        145.83830357
         -7.69000000        169.57411729
         -7.68000000        193.69516136
         -7.67000000         65.69741653
         -7.66000000         71.30336405
         -7.65000000         75.93554429
         -7.64000000         54.70981282
         -7.63000000         86.68325165
         -7.62000000         71.86734255
         -7.61000000         19.55138903
         -7.60000000         45.95297498
         -7.59000000         41.28826417
         -7.58000000         27.73401646
         -7.57000000         29.83301296
         -7.56000000         31.93200946
         -7.55000000         34.03100595
         -7.54000000         71.78623305
         -7.53000000         76.45890922
         -7.52000000         52.47454521
         -7.51000000         45.44320058
         -7.50000000         53.41457954
         -7.49000000         68.24106229
         -7.48000000         78.46042381
         -7.47000000         90.61789487
         -7.46000000         69.17800128
         -7.45000000         49.72636208
         -7.44000000         48.91302505
         -7.43000000         63.66214289
         -7.42000000         42.86681173
         -7.41000000         44.47003746
         -7.40000000         46.07326318
         -7.39000000         47.67648890
         -7.38000000         49.27971463
         -7.37000000         50.88294035
         -7.36000000         52.48616607
         -7.35000000         54.08939180
         -7.34000000         57.77049693
         -7.33000000         50.12021707
         -7.32000000         53.70077618
         -7.31000000         52.81063680
         -7.30000000         58.69508689
         -7.29000000         56.08815458
         -7.28000000         52.93209738
         -7.27000000         47.44061932
         -7.26000000         43.89998048
         -7.25000000         41.74012364
         -7.24000000         39.58026681
         -7.23000000         37.42040997
         -7.22000000         38.46600537
         -7.21000000         39.17590324
         -7.20000000         37.62034484
         -7.19000000         34.37897589
         -7.18000000         27.53799046
         -7.17000000         20.69700502
         -7.16000000         13.85601959
         -7.15000000         37.06880161
         -7.14000000        231.00774919
         -7.13000000         64.15731486
         -7.12000000         48.74660103
         -7.11000000         73.97862751
         -7.10000000         92.47469973
         -7.09000000         74.62075571
         -7.08000000         45.35296572
         -7.07000000         40.98342680
         -7.06000000         42.10102175
         -7.05000000         62.63254620
         -7.04000000         65.20312930
         -7.03000000         47.28811367
         -7.02000000         49.44886047
         -7.01000000         92.22220733
         -7.00000000        117.64475065
         -6.99000000         40.28785000
         -6.98000000         46.44996983
         -6.97000000         54.01868236
         -6.96000000        111.55659215
         -6.95000000         74.87072045
         -6.94000000        288.09065149
         -6.93000000         54.97806801
         -6.92000000         50.47565707
         -6.91000000         77.24342228
         -6.90000000         66.38303870
         -6.89000000         23.42095994
         -6.88000000         19.96520408
         -6.87000000         16.63055339
         -6.86000000         14.00994202
         -6.85000000         13.91131327
         -6.84000000         28.90961023
         -6.83000000        108.97939876
         -6.82000000        157.49371105
         -6.81000000        141.12532501
         -6.80000000        175.79685329
         -6.79000000        148.14881882
         -6.78000000         78.30007436
         -6.77000000         62.43223529
         -6.76000000         46.56439622
         -6.75000000         76.66416978
         -6.74000000        104.48287223
         -6.73000000         80.73871083
         -6.72000000         69.98158967
         -6.71000000         46.54230084
         -6.70000000         54.15130566
         -6.69000000         56.95749224
         -6.68000000         57.44128116
         -6.67000000         57.38830691
         -6.66000000         57.33533267
         -6.65000000         59.27612964
         -6.64000000         62.64019829
         -6.63000000         98.50033553
         -6.62000000        103.04531371
         -6.61000000        115.97912641
         -6.60000000        101.95173107
         -6.59000000         46.78367126
         -6.58000000         46.54324230
         -6.57000000         46.30281334
         -6.56000000         46.06238438
         -6.55000000         45.82195542
         -6.54000000         65.23379185
         -6.53000000         58.13139357
         -6.52000000         70.52801010
         -6.51000000         65.02224085
         -6.50000000         46.73649909
         -6.49000000         41.37402530
         -6.48000000         33.67268628
         -6.47000000         20.29806364
         -6.46000000         20.77261784
         -6.45000000         74.94247520
         -6.44000000         52.78647466
         -6.43000000         55.66537675
         -6.42000000         58.54427884
         -6.41000000         61.42318094
         -6.40000000         64.30208303
         -6.39000000         95.15473587
         -6.38000000         55.01171692
         -6.37000000         23.48976864
         -6.36000000         23.41605804
         -6.35000000         23.34234744
         -6.34000000         23.45851821
         -6.33000000         42.28135571
         -6.32000000         47.77067164
         -6.31000000         69.11275559
         -6.30000000        148.00384816
         -6.29000000         92.32447232
         -6.28000000         18.20244733
         -6.27000000         15.15548783
         -6.26000000         12.10852834
         -6.25000000         39.68262482
         -6.24000000         30.75468396
         -6.23000000         21.82674311
         -6.22000000         13.10621844
         -6.21000000         13.81053143
         -6.20000000         96.72795207
         -6.19000000         38.44369526
         -6.18000000         41.00994056
         -6.17000000         43.57618586
         -6.16000000         46.14243115
         -6.15000000         48.70867645
         -6.14000000         51.27492175
         -6.13000000         39.73536835
         -6.12000000         37.08931864
         -6.11000000         41.88673213
         -6.10000000         25.71152627
         -6.09000000          5.46246897
         -6.08000000         13.68174000
         -6.07000000         68.00181750
         -6.06000000         26.26444029
         -6.05000000         22.31785133
         -6.04000000         19.07361313
         -6.03000000         15.82937493
         -6.02000000         12.58513673
         -6.01000000          9.34089852
         -6.00000000          0.00000000
         -5.99000000          0.00000000
         -5.98000000          0.00000000
         -5.97000000          0.00000000
         -5.96000000          0.00000000
         -5.95000000          0.00000000
         -5.94000000          0.00000000
         -5.93000000          0.00000000
         -5.92000000          0.00000000
         -5.91000000          0.00000000
         -5.90000000          0.00000000
         -5.89000000          0.00000000
         -5.88000000          0.00000000
         -5.87000000          0.00000000
         -5.86000000          0.00000000
         -5.85000000          0.00000000
         -5.84000000          0.00000000
         -5.83000000          0.00000000
         -5.82000000          0.00000000
         -5.81000000          0.00000000
         -5.80000000          0.00000000
         -5.79000000          0.00000000
         -5.78000000          0.00000000
         -5.77000000          0.00000000
         -5.76000000          0.00000000
         -5.75000000          0.00000000
         -5.74000000          0.00000000
         -5.73000000          0.00000000
         -5.72000000          0.00000000
         -5.71000000          0.00000000
         -5.70000000          0.00000000
         -5.69000000          0.00000000
         -5.68000000          0.00000000
         -5.67000000          0.00000000
         -5.66000000          0.00000000
         -5.65000000          0.00000000
         -5.64000000          0.00000000
         -5.63000000          0.00000000
         -5.62000000          0.00000000
         -5.61000000          0.00000000
         -5.60000000          0.00000000
         -5.59000000          0.00000000
         -5.58000000          0.00000000
         -5.57000000          0.00000000
         -5.56000000          0.00000000
         -5.55000000          0.00000000
         -5.54000000          0.00000000
         -5.53000000          0.00000000
         -5.52000000          0.00000000
         -5.51000000          0.00000000
         -5.50000000          0.00000000
         -5.49000000          0.00000000
         -5.48000000          0.00000000
         -5.47000000          0.00000000
         -5.46000000          0.00000000
         -5.45000000          0.00000000
         -5.44000000          0.00000000
         -5.43000000          0.00000000
         -5.42000000          0.00000000
         -5.41000000          0.00000000
         -5.40000000          0.00000000
         -5.39000000          0.00000000
         -5.38000000          0.00000000
         -5.37000000          0.00000000
         -5.36000000          0.00000000
         -5.35000000          0.00000000
         -5.34000000          0.00000000
         -5.33000000          0.00000000
         -5.32000000          0.00000000
         -5.31000000          0.00000000
         -5.30000000          0.00000000
         -5.29000000          0.00000000
         -5.28000000          0.00000000
         -5.27000000          0.00000000
         -5.26000000          0.00000000
         -5.25000000          0.00000000
         -5.24000000          0.00000000
         -5.23000000          0.00000000
         -5.22000000          0.00000000
         -5.21000000          0.00000000
         -5.20000000          0.00000000
         -5.19000000          0.00000000
         -5.18000000          0.00000000
         -5.17000000          0.00000000
         -5.16000000          0.00000000
         -5.15000000          0.00000000
         -5.14000000          0.00000000
         -5.13000000          0.00000000
         -5.12000000          0.00000000
         -5.11000000          0.00000000
         -5.10000000          0.00000000
         -5.09000000          0.00000000
         -5.08000000          0.00000000
         -5.07000000          0.00000000
         -5.06000000          0.00000000
         -5.05000000          0.00000000
         -5.04000000          0.00000000
         -5.03000000          0.00000000
         -5.02000000          0.00000000
         -5.01000000          0.00000000
         -5.00000000          0.00000000
         -4.99000000          0.00000000
         -4.98000000          0.00000000
         -4.97000000          0.00000000
         -4.96000000          0.00000000
         -4.95000000          0.00000000
         -4.94000000          0.00000000
         -4.93000000          0.00000000
         -4.92000000          0.00000000
         -4.91000000          0.00000000
         -4.90000000          0.00000000
         -4.89000000          0.00000000
         -4.88000000          0.00000000
         -4.87000000          0.00000000
         -4.86000000          0.00000000
         -4.85000000          0.00000000
         -4.84000000          0.00000000
         -4.83000000          0.00000000
         -4.82000000          0.00000000
         -4.81000000          0.00000000
         -4.80000000          0.00000000
         -4.79000000          0.00000000
         -4.78000000          0.00000000
         -4.77000000          0.00000000
         -4.76000000          0.00000000
         -4.75000000          0.00000000
         -4.74000000          0.00000000
         -4.73000000          0.00000000
         -4.72000000          0.00000000
         -4.71000000          0.00000000
         -4.70000000          0.00000000
         -4.69000000          0.00000000
         -4.68000000          0.00000000
         -4.67000000          0.00000000
         -4.66000000          0.00000000
         -4.65000000          0.00000000
         -4.64000000          0.00000000
         -4.63000000          0.00000000
         -4.62000000          0.00000000
         -4.61000000          0.00000000
         -4.60000000          0.00000000
         -4.59000000          0.00000000
         -4.58000000          0.00000000
         -4.57000000          0.00000000
         -4.56000000          0.00000000
         -4.55000000          0.00000000
         -4.54000000          0.00000000
         -4.53000000          0.00000000
         -4.52000000          0.00000000
         -4.51000000          0.00000000
         -4.50000000          0.00000000
         -4.49000000          0.00000000
         -4.48000000          0.00000000
         -4.47000000          0.00000000
         -4.46000000          0.00000000
         -4.45000000          0.00000000
         -4.44000000          0.00000000
         -4.43000000          0.00000000
         -4.42000000          0.00000000
         -4.41000000          0.00000000
         -4.40000000          0.00000000
         -4.39000000          0.00000000
         -4.38000000          0.00000000
         -4.37000000          0.00000000
         -4.36000000          0.00000000
         -4.35000000          0.00000000
         -4.34000000          0.00000000
         -4.33000000          0.00000000
         -4.32000000          0.00000000
         -4.31000000          0.00000000
         -4.30000000          0.00000000
         -4.29000000          0.00000000
         -4.28000000          0.00000000
         -4.27000000          0.00000000
         -4.26000000          0.00000000
         -4.25000000          0.00000000
         -4.24000000          0.00000000
         -4.23000000          0.00000000
         -4.22000000          0.00000000
         -4.21000000          0.00000000
         -4.20000000          0.00000000
         -4.19000000          0.00000000
         -4.18000000          7.95555032
         -4.17000000          8.63363088
         -4.16000000          9.31171145
         -4.15000000          9.98979202
         -4.14000000         10.66787259
         -4.13000000         11.34595316
         -4.12000000         12.02403373
         -4.11000000         12.70211430
         -4.10000000         13.38019487
         -4.09000000         14.05827544
         -4.08000000         16.85181469
         -4.07000000         21.09553654
         -4.06000000         25.33925838
         -4.05000000         29.58298023
         -4.04000000         77.47633690
         -4.03000000         54.45024174
         -4.02000000         70.95426648
         -4.01000000         65.69466379
         -4.00000000         64.32149504
         -3.99000000         62.94832629
         -3.98000000         61.57515754
         -3.97000000         71.62232299
         -3.96000000        114.10877450
         -3.95000000         54.35426386
         -3.94000000         79.46233583
         -3.93000000         65.91632268
         -3.92000000         54.24732490
         -3.91000000         42.57832713
         -3.90000000         30.90932936
         -3.89000000        101.28537653
         -3.88000000         55.94695984
         -3.87000000        102.57405394
         -3.86000000        271.11547601
         -3.85000000        115.18240879
         -3.84000000         96.16938265
         -3.83000000         91.72281944
         -3.82000000        162.99556266
         -3.81000000        112.39078731
         -3.80000000         90.40347545
         -3.79000000         68.41616359
         -3.78000000         57.31034289
         -3.77000000        125.35777837
         -3.76000000        179.12972834
         -3.75000000        215.49648340
         -3.74000000         71.29173525
         -3.73000000        149.24159890
         -3.72000000        208.09001931
         -3.71000000        217.52661914
         -3.70000000        148.62477500
         -3.69000000        110.28876031
         -3.68000000         99.90413165
         -3.67000000        129.38768587
         -3.66000000        152.67098076
         -3.65000000        219.24466309
         -3.64000000         35.31540972
         -3.63000000         40.89785151
         -3.62000000         46.48029330
         -3.61000000         52.06273509
         -3.60000000         59.34355289
         -3.59000000         71.85289354
         -3.58000000         97.89999702
         -3.57000000         97.22378160
         -3.56000000         51.79376866
         -3.55000000         52.38928360
         -3.54000000         40.41816525
         -3.53000000         29.59731655
         -3.52000000         18.77646785
         -3.51000000        118.98232203
         -3.50000000        174.26421640
         -3.49000000        102.99292202
         -3.48000000         78.14327610
         -3.47000000        140.94789143
         -3.46000000        162.54616608
         -3.45000000        145.26047053
         -3.44000000        128.15650790
         -3.43000000        103.70817515
         -3.42000000         63.13692139
         -3.41000000        137.12056523
         -3.40000000        151.67117125
         -3.39000000        159.25205295
         -3.38000000        180.27279119
         -3.37000000        231.28147506
         -3.36000000        111.70753314
         -3.35000000         79.96241245
         -3.34000000         82.72426634
         -3.33000000         53.25661755
         -3.32000000         52.64292414
         -3.31000000         96.83951506
         -3.30000000        171.56923500
         -3.29000000        165.91784831
         -3.28000000        102.39690292
         -3.27000000         99.39477445
         -3.26000000         94.75477207
         -3.25000000         86.55713817
         -3.24000000         86.54662595
         -3.23000000        129.45127549
         -3.22000000        169.22389258
         -3.21000000        102.74868804
         -3.20000000         52.07753649
         -3.19000000        101.07794142
         -3.18000000        109.13811062
         -3.17000000        115.82828167
         -3.16000000        102.44836069
         -3.15000000        200.28441335
         -3.14000000         52.45268691
         -3.13000000         57.19816865
         -3.12000000         52.54072318
         -3.11000000         15.37740409
         -3.10000000          0.00000000
         -3.09000000         94.58101246
         -3.08000000        155.77893213
         -3.07000000         64.50337203
         -3.06000000         73.07776844
         -3.05000000         95.02576990
         -3.04000000         86.68359584
         -3.03000000         87.93116892
         -3.02000000         39.72788771
         -3.01000000         46.67363068
         -3.00000000         53.97538327
         -2.99000000         61.27713585
         -2.98000000         68.57888843
         -2.97000000        102.82453530
         -2.96000000        112.79543603
         -2.95000000        130.46476838
         -2.94000000        111.77716384
         -2.93000000        131.03917058
         -2.92000000         86.22273886
         -2.91000000         65.60502515
         -2.90000000         59.24578699
         -2.89000000         50.17706077
         -2.88000000         44.27390426
         -2.87000000          6.22009424
         -2.86000000          5.73004863
         -2.85000000        131.69702244
         -2.84000000        104.38317396
         -2.83000000        104.83976122
         -2.82000000         95.77939186
         -2.81000000         86.71902251
         -2.80000000         77.65865316
         -2.79000000         97.55344774
         -2.78000000         86.96110439
         -2.77000000          9.88397038
         -2.76000000          7.00916029
         -2.75000000          4.13435020
         -2.74000000          1.41003877
         -2.73000000          0.00000000
         -2.72000000        146.56459129
         -2.71000000        111.99284541
         -2.70000000         98.11394162
         -2.69000000         86.70032389
         -2.68000000         86.43929566
         -2.67000000        116.63678684
         -2.66000000         84.17566986
         -2.65000000         69.48760621
         -2.64000000         32.61173002
         -2.63000000         33.84477390
         -2.62000000         35.07781778
         -2.61000000         36.31086166
         -2.60000000         37.54390554
         -2.59000000         38.77694942
         -2.58000000         30.79250805
         -2.57000000          6.67357649
         -2.56000000          6.71419479
         -2.55000000          6.75481309
         -2.54000000          6.79543139
         -2.53000000          6.83604969
         -2.52000000        108.15324612
         -2.51000000         43.08824278
         -2.50000000         40.64148109
         -2.49000000         38.19471940
         -2.48000000         35.74795771
         -2.47000000         33.30119602
         -2.46000000         30.85443433
         -2.45000000         28.40767264
         -2.44000000         43.99496223
         -2.43000000         80.39225304
         -2.42000000        118.14086630
         -2.41000000        137.11121575
         -2.40000000        108.75983669
         -2.39000000        121.29552115
         -2.38000000         71.43921784
         -2.37000000         12.76616824
         -2.36000000         12.45155583
         -2.35000000         12.13694342
         -2.34000000         11.82233100
         -2.33000000         11.50771859
         -2.32000000         11.19310618
         -2.31000000         10.87849376
         -2.30000000         10.56388135
         -2.29000000         10.24926894
         -2.28000000          9.93465653
         -2.27000000          9.62004411
         -2.26000000          9.30543170
         -2.25000000          8.99081929
         -2.24000000          8.67620687
         -2.23000000         12.90766884
         -2.22000000         22.54557075
         -2.21000000         32.49164899
         -2.20000000         42.43772722
         -2.19000000         53.73814255
         -2.18000000         97.41796018
         -2.17000000        134.31752078
         -2.16000000         82.86071824
         -2.15000000         40.21081332
         -2.14000000         40.80567115
         -2.13000000         37.86197544
         -2.12000000         38.21655895
         -2.11000000         37.65763206
         -2.10000000         37.10304954
         -2.09000000         37.11139486
         -2.08000000         37.11974019
         -2.07000000         37.79923472
         -2.06000000         45.78315756
         -2.05000000         38.67436878
         -2.04000000         70.40756003
         -2.03000000         26.53452770
         -2.02000000         25.39386261
         -2.01000000         24.25319751
         -2.00000000         23.11253242
         -1.99000000         21.97186733
         -1.98000000         20.83120223
         -1.97000000         19.69053714
         -1.96000000         46.08429457
         -1.95000000         42.79038760
         -1.94000000         18.03806354
         -1.93000000          8.56671607
         -1.92000000          2.94122012
         -1.91000000         13.17933945
         -1.90000000         32.59753840
         -1.89000000         38.49636195
         -1.88000000         21.66485214
         -1.87000000         24.29274860
         -1.86000000         26.92064507
         -1.85000000         29.54854153
         -1.84000000         32.17643800
         -1.83000000         34.80433446
         -1.82000000         44.61341389
         -1.81000000         29.77862988
         -1.80000000         69.90727325
         -1.79000000         37.92045650
         -1.78000000         38.76087309
         -1.77000000         39.33264567
         -1.76000000         39.90441824
         -1.75000000         50.12863132
         -1.74000000        188.97505847
         -1.73000000        155.21775123
         -1.72000000        128.95788577
         -1.71000000        148.92577848
         -1.70000000        107.12416081
         -1.69000000        187.01377446
         -1.68000000         27.60432165
         -1.67000000         26.22098845
         -1.66000000        103.81673487
         -1.65000000         72.00845230
         -1.64000000         55.08778765
         -1.63000000         51.07646482
         -1.62000000         51.22909960
         -1.61000000         52.93491687
         -1.60000000         54.83075432
         -1.59000000         57.69763854
         -1.58000000         61.37399730
         -1.57000000         63.40741379
         -1.56000000        144.01707254
         -1.55000000         62.17082243
         -1.54000000         22.17220097
         -1.53000000          9.41116628
         -1.52000000         11.37696646
         -1.51000000         14.26883606
         -1.50000000         17.27543471
         -1.49000000         20.28203336
         -1.48000000         23.28863201
         -1.47000000         26.29523066
         -1.46000000         29.30182931
         -1.45000000         32.30842796
         -1.44000000         35.31502661
         -1.43000000         38.32162526
         -1.42000000         39.24260631
         -1.41000000         31.73339415
         -1.40000000         24.22418200
         -1.39000000         16.71496984
         -1.38000000          9.20575768
         -1.37000000         13.27850020
         -1.36000000         28.06237183
         -1.35000000         88.28963063
         -1.34000000         46.46419621
         -1.33000000         39.55858816
         -1.32000000         32.65298011
         -1.31000000         25.74737207
         -1.30000000         12.75334880
         -1.29000000         12.43821189
         -1.28000000         12.12307498
         -1.27000000         11.80793808
         -1.26000000         11.49280117
         -1.25000000         11.17766426
         -1.24000000         10.86252736
         -1.23000000         10.54739045
         -1.22000000         10.23225354
         -1.21000000         59.92416712
         -1.20000000         14.21879585
         -1.19000000         18.93752025
         -1.18000000         23.65624466
         -1.17000000         28.37496906
         -1.16000000         33.09369346
         -1.15000000         18.70902815
         -1.14000000         19.24986698
         -1.13000000         18.51007325
         -1.12000000         17.77027953
         -1.11000000         17.03048581
         -1.10000000         16.29069209
         -1.09000000         15.55089837
         -1.08000000         14.81110465
         -1.07000000         14.42686598
         -1.06000000         14.48172284
         -1.05000000         14.53657971
         -1.04000000         14.59143658
         -1.03000000         14.64629345
         -1.02000000          0.00000000
         -1.01000000          0.00000000
         -1.00000000          0.00000000
         -0.99000000          0.00000000
         -0.98000000          0.00000000
         -0.97000000          0.00000000
         -0.96000000          0.00000000
         -0.95000000          0.00000000
         -0.94000000          0.00000000
         -0.93000000          0.00000000
         -0.92000000          0.00000000
         -0.91000000          0.00000000
         -0.90000000          0.00000000
         -0.89000000          0.00000000
         -0.88000000          0.00000000
         -0.87000000          0.00000000
         -0.86000000          0.00000000
         -0.85000000          0.00000000
         -0.84000000          0.00000000
         -0.83000000          0.00000000
         -0.82000000          0.00000000
         -0.81000000          0.00000000
         -0.80000000          0.00000000
         -0.79000000          0.00000000
         -0.78000000          0.00000000
         -0.77000000          0.00000000
         -0.76000000          0.00000000
         -0.75000000          0.00000000
         -0.74000000          0.00000000
         -0.73000000          0.00000000
         -0.72000000          0.00000000
         -0.71000000          0.00000000
         -0.70000000          0.00000000
         -0.69000000          0.00000000
         -0.68000000          0.00000000
         -0.67000000          0.00000000
         -0.66000000          0.00000000
         -0.65000000          0.00000000
         -0.64000000          0.00000000
         -0.63000000          0.00000000
         -0.62000000          0.00000000
         -0.61000000          0.00000000
         -0.60000000          0.00000000
         -0.59000000          0.00000000
         -0.58000000          0.00000000
         -0.57000000          0.00000000
         -0.56000000          0.00000000
         -0.55000000          0.00000000
         -0.54000000          0.00000000
         -0.53000000          0.00000000
         -0.52000000          0.00000000
         -0.51000000          0.00000000
         -0.50000000          0.00000000
         -0.49000000          0.00000000
         -0.48000000          0.00000000
         -0.47000000          0.00000000
         -0.46000000          0.00000000
         -0.45000000          0.00000000
         -0.44000000          0.00000000
         -0.43000000          0.00000000
         -0.42000000          0.00000000
         -0.41000000          0.00000000
         -0.40000000          0.00000000
         -0.39000000          0.00000000
         -0.38000000          0.00000000
         -0.37000000          0.00000000
         -0.36000000          0.00000000
         -0.35000000          0.00000000
         -0.34000000          0.00000000
         -0.33000000          0.00000000
         -0.32000000          0.00000000
         -0.31000000          0.00000000
         -0.30000000          0.00000000
         -0.29000000          0.00000000
         -0.28000000          0.00000000
         -0.27000000          0.00000000
         -0.26000000          0.00000000
         -0.25000000          0.00000000
         -0.24000000          0.00000000
         -0.23000000          0.00000000
         -0.22000000          0.00000000
         -0.21000000          0.00000000
         -0.20000000          0.00000000
         -0.19000000          0.00000000
         -0.18000000          0.00000000
         -0.17000000          0.00000000
         -0.16000000          0.00000000
         -0.15000000          0.00000000
         -0.14000000          0.00000000
         -0.13000000          0.00000000
         -0.12000000          0.00000000
         -0.11000000          0.00000000
         -0.10000000          0.00000000
         -0.09000000          0.00000000
         -0.08000000          0.00000000
         -0.07000000          0.00000000
         -0.06000000          0.00000000
         -0.05000000          0.00000000
         -0.04000000          0.00000000
         -0.03000000          0.00000000
         -0.02000000          0.00000000
         -0.01000000          0.00000000
          0.00000000          0.00000000
