# total density of states output by FHI-aims 
# The energy reference for this output is the vacuum level
#    Energy (eV)      DOS 
        -10.00000000         40.80508137
         -9.99000000         50.41748745
         -9.98000000         27.19447231
         -9.97000000         13.72813008
         -9.96000000          0.26178786
         -9.95000000         33.67038335
         -9.94000000         63.67373689
         -9.93000000         87.05935143
         -9.92000000         15.92109804
         -9.91000000         27.68134788
         -9.90000000         29.86111681
         -9.89000000         32.04088573
         -9.88000000         34.22065466
         -9.87000000         36.40042359
         -9.86000000         38.58019252
         -9.85000000         30.08237732
         -9.84000000         21.24906241
         -9.83000000         19.57293645
         -9.82000000         17.45548711
         -9.81000000         15.33803777
         -9.80000000         29.03723196
         -9.79000000         26.15937192
         -9.78000000         27.80424784
         -9.77000000         25.08833945
         -9.76000000         22.37243107
         -9.75000000         19.62534946
         -9.74000000         16.93803489
         -9.73000000         14.40916840
         -9.72000000         22.44753676
         -9.71000000         33.80288085
         -9.70000000         46.34771544
         -9.69000000         59.43765455
         -9.68000000         27.98851563
         -9.67000000         26.54829938
         -9.66000000         42.00404659
         -9.65000000         33.59597263
         -9.64000000         28.59923579
         -9.63000000         33.59643268
         -9.62000000         38.59362956
         -9.61000000         43.59082644
         -9.60000000        311.79321212
         -9.59000000         64.04596611
         -9.58000000         44.97289889
         -9.57000000         30.05756788
         -9.56000000         74.45155504
         -9.55000000         15.66374710
         -9.54000000         84.58628326
         -9.53000000         80.75144117
         -9.52000000         55.71611243
         -9.51000000         77.59078296
         -9.50000000         58.86125347
         -9.49000000         46.51348930
         -9.48000000         50.68586263
         -9.47000000         86.11010407
         -9.46000000         65.84062551
         -9.45000000         45.57114695
         -9.44000000         64.16101337
         -9.43000000         92.26198709
         -9.42000000         79.92188528
         -9.41000000         96.81811883
         -9.40000000          0.00000000
         -9.39000000         63.68032309
         -9.38000000         43.25851220
         -9.37000000         90.94715895
         -9.36000000         93.52257122
         -9.35000000         28.27190524
         -9.34000000         24.58688119
         -9.33000000         58.10712010
         -9.32000000         79.17395381
         -9.31000000        358.03907393
         -9.30000000         69.06477206
         -9.29000000         84.03116020
         -9.28000000         49.24627150
         -9.27000000         42.51489208
         -9.26000000         35.78351266
         -9.25000000         30.93227663
         -9.24000000         27.14167772
         -9.23000000         23.35107881
         -9.22000000         21.43914477
         -9.21000000         39.57021899
         -9.20000000         37.88850883
         -9.19000000         37.77110162
         -9.18000000         37.65369442
         -9.17000000         32.23999672
         -9.16000000         31.74731826
         -9.15000000         32.75986828
         -9.14000000         43.22072652
         -9.13000000         89.14077764
         -9.12000000         43.52553224
         -9.11000000         40.01371433
         -9.10000000         46.91844675
         -9.09000000         41.32926573
         -9.08000000        138.93865807
         -9.07000000        115.63967683
         -9.06000000         75.39498447
         -9.05000000         56.89392995
         -9.04000000         31.68087764
         -9.03000000         43.96328800
         -9.02000000         63.88296995
         -9.01000000         31.30515054
         -9.00000000         20.73379502
         -8.99000000         44.93126361
         -8.98000000         39.88151848
         -8.97000000         34.83177336
         -8.96000000         29.78202823
         -8.95000000         27.02296126
         -8.94000000        159.85229131
         -8.93000000         37.15454795
         -8.92000000        745.47681123
         -8.91000000         34.64604532
         -8.90000000         32.76175047
         -8.89000000         33.42428618
         -8.88000000         34.73114768
         -8.87000000         35.22090107
         -8.86000000         43.67557630
         -8.85000000         52.13025154
         -8.84000000         56.84784305
         -8.83000000         54.46843072
         -8.82000000         52.08901839
         -8.81000000         48.17244677
         -8.80000000         29.25416087
         -8.79000000         31.65906762
         -8.78000000         39.95726764
         -8.77000000         48.25546765
         -8.76000000         31.70153815
         -8.75000000         27.43436239
         -8.74000000         23.16718663
         -8.73000000         14.49043055
         -8.72000000         12.90037155
         -8.71000000         11.31031254
         -8.70000000          9.72025354
         -8.69000000          8.35104489
         -8.68000000         11.88868952
         -8.67000000         12.06902462
         -8.66000000         17.32555203
         -8.65000000         22.58207945
         -8.64000000         12.83849647
         -8.63000000         34.57534171
         -8.62000000         40.25368638
         -8.61000000         55.96724717
         -8.60000000         34.27084186
         -8.59000000         34.30225401
         -8.58000000         40.96223281
         -8.57000000         47.64577355
         -8.56000000         54.32931430
         -8.55000000         49.39435799
         -8.54000000         33.59131682
         -8.53000000         35.52308088
         -8.52000000         41.06091847
         -8.51000000         31.75217405
         -8.50000000         37.69417167
         -8.49000000         43.63616929
         -8.48000000         37.34329678
         -8.47000000         37.67389315
         -8.46000000         38.00448952
         -8.45000000         42.32161969
         -8.44000000         30.54333046
         -8.43000000         26.36097450
         -8.42000000         22.17861854
         -8.41000000         17.99626257
         -8.40000000         19.26513586
         -8.39000000         32.29648496
         -8.38000000         56.55244205
         -8.37000000         43.78699449
         -8.36000000         59.17612000
         -8.35000000         94.47255279
         -8.34000000        113.99226725
         -8.33000000          8.44455432
         -8.32000000         85.85802356
         -8.31000000         83.85640033
         -8.30000000        102.80187769
         -8.29000000         60.98347270
         -8.28000000         41.64300762
         -8.27000000         50.86815874
         -8.26000000         40.50807472
         -8.25000000         39.07252304
         -8.24000000         34.12820758
         -8.23000000         39.42698417
         -8.22000000         80.45984457
         -8.21000000         69.06944305
         -8.20000000         24.76928033
         -8.19000000         17.28975098
         -8.18000000         54.24527041
         -8.17000000         64.71396583
         -8.16000000         63.36240880
         -8.15000000          5.22027149
         -8.14000000          2.65871664
         -8.13000000        136.11489183
         -8.12000000         85.66788063
         -8.11000000        114.72334931
         -8.10000000         78.76499675
         -8.09000000        139.67671481
         -8.08000000        122.20588384
         -8.07000000         76.92630154
         -8.06000000         98.40558011
         -8.05000000        105.57562162
         -8.04000000        105.83688995
         -8.03000000        138.01585856
         -8.02000000        115.73591538
         -8.01000000        136.63589889
         -8.00000000         94.48587801
         -7.99000000         76.23050273
         -7.98000000         76.72826416
         -7.97000000         77.74246138
         -7.96000000         91.34325688
         -7.95000000        142.56785120
         -7.94000000         68.37745844
         -7.93000000         43.86629134
         -7.92000000         72.30915863
         -7.91000000         58.76385771
         -7.90000000         98.61061811
         -7.89000000         63.52837954
         -7.88000000        137.73358041
         -7.87000000         39.43578803
         -7.86000000         45.22688860
         -7.85000000         51.69172621
         -7.84000000         44.91845880
         -7.83000000         50.79999456
         -7.82000000         70.05436378
         -7.81000000         56.04347050
         -7.80000000         79.20236123
         -7.79000000         85.05005235
         -7.78000000         63.64488680
         -7.77000000         57.92915131
         -7.76000000         33.13223934
         -7.75000000         36.84608967
         -7.74000000         46.07721876
         -7.73000000         22.42324230
         -7.72000000         62.59255128
         -7.71000000         99.36048170
         -7.70000000         30.89897354
         -7.69000000         29.38545150
         -7.68000000         27.87192946
         -7.67000000         26.35840741
         -7.66000000        240.90513524
         -7.65000000         76.28218315
         -7.64000000         24.64443431
         -7.63000000         30.80389092
         -7.62000000         38.99453362
         -7.61000000         47.18517632
         -7.60000000         55.37581902
         -7.59000000         63.56646172
         -7.58000000         38.14676970
         -7.57000000         38.59848170
         -7.56000000        114.70094269
         -7.55000000         36.42689383
         -7.54000000         49.73997247
         -7.53000000         63.05305110
         -7.52000000         33.61542622
         -7.51000000         31.21041446
         -7.50000000         33.89981290
         -7.49000000         37.32895375
         -7.48000000         40.75809460
         -7.47000000         49.17936658
         -7.46000000         47.54759595
         -7.45000000         58.27463555
         -7.44000000         66.90216413
         -7.43000000         53.46298548
         -7.42000000         55.16959603
         -7.41000000         72.66946234
         -7.40000000         53.23703763
         -7.39000000         46.41503368
         -7.38000000         40.13276665
         -7.37000000         34.81038273
         -7.36000000         33.57290166
         -7.35000000         37.75045800
         -7.34000000         41.92801435
         -7.33000000         70.17635801
         -7.32000000         22.85410191
         -7.31000000         39.97395021
         -7.30000000         49.92684176
         -7.29000000         33.61349627
         -7.28000000         30.40877767
         -7.27000000         27.20405907
         -7.26000000         61.55306830
         -7.25000000        126.25869727
         -7.24000000         35.77613522
         -7.23000000         40.71548264
         -7.22000000         33.51041253
         -7.21000000         26.83721971
         -7.20000000         45.92964013
         -7.19000000         89.15310165
         -7.18000000         35.59901913
         -7.17000000         42.55063659
         -7.16000000         52.13001910
         -7.15000000         50.03326922
         -7.14000000         72.91334903
         -7.13000000         35.21523491
         -7.12000000         18.86725847
         -7.11000000          2.51928203
         -7.10000000         42.61379101
         -7.09000000         60.45707147
         -7.08000000         91.22925869
         -7.07000000         79.03544659
         -7.06000000         66.67717542
         -7.05000000         91.70297047
         -7.04000000         71.46782793
         -7.03000000         51.68889324
         -7.02000000         21.81420390
         -7.01000000         39.73398802
         -7.00000000         53.49596335
         -6.99000000         91.86864504
         -6.98000000         36.92996134
         -6.97000000         38.03675604
         -6.96000000         39.14355074
         -6.95000000        100.14676682
         -6.94000000         59.04797219
         -6.93000000         12.16704978
         -6.92000000          7.48094041
         -6.91000000         84.78792956
         -6.90000000        165.13657860
         -6.89000000         12.39320612
         -6.88000000         22.99295569
         -6.87000000         33.59270526
         -6.86000000         16.65282249
         -6.85000000         15.94664987
         -6.84000000         15.24047725
         -6.83000000         25.10222252
         -6.82000000         38.01471825
         -6.81000000         61.59172172
         -6.80000000         25.60873899
         -6.79000000         42.50978626
         -6.78000000         50.46934745
         -6.77000000         58.42890864
         -6.76000000         30.29405548
         -6.75000000         27.98167630
         -6.74000000         35.22248499
         -6.73000000         75.31112227
         -6.72000000         88.37823629
         -6.71000000         66.65425062
         -6.70000000         51.71815542
         -6.69000000         13.15091609
         -6.68000000         19.42408563
         -6.67000000         25.69725516
         -6.66000000         24.11658874
         -6.65000000         52.10017433
         -6.64000000        142.55616660
         -6.63000000         82.40010941
         -6.62000000         59.74254655
         -6.61000000         48.04120764
         -6.60000000         23.30971247
         -6.59000000         30.15377059
         -6.58000000         29.84120744
         -6.57000000         41.75815873
         -6.56000000         54.61350585
         -6.55000000         57.56675625
         -6.54000000         62.80588713
         -6.53000000         53.21530495
         -6.52000000        177.50170532
         -6.51000000         55.05546694
         -6.50000000         87.76987301
         -6.49000000         52.08414232
         -6.48000000         56.17360356
         -6.47000000         80.02481076
         -6.46000000         29.04224028
         -6.45000000         31.96903614
         -6.44000000         48.76171690
         -6.43000000         46.90467288
         -6.42000000         64.44334635
         -6.41000000         52.07318282
         -6.40000000         39.70301929
         -6.39000000         40.53496967
         -6.38000000         43.72315119
         -6.37000000         70.41924550
         -6.36000000        147.65539450
         -6.35000000         35.65047474
         -6.34000000         55.43772523
         -6.33000000          0.00000000
         -6.32000000          0.00000000
         -6.31000000         21.06975001
         -6.30000000         30.39002782
         -6.29000000         39.71030563
         -6.28000000         49.03058345
         -6.27000000         29.81107213
         -6.26000000         28.15171048
         -6.25000000         26.49234883
         -6.24000000         89.40455138
         -6.23000000         85.49099661
         -6.22000000         75.38458854
         -6.21000000         33.51058537
         -6.20000000         32.78677240
         -6.19000000         32.06295943
         -6.18000000         31.33914646
         -6.17000000         30.67279261
         -6.16000000         79.76384055
         -6.15000000         19.57912150
         -6.14000000          5.30717104
         -6.13000000         98.40800225
         -6.12000000         79.41226376
         -6.11000000          0.00000000
         -6.10000000         60.44291664
         -6.09000000         49.95029226
         -6.08000000         21.66112820
         -6.07000000         20.73442184
         -6.06000000         19.80771548
         -6.05000000         18.88100911
         -6.04000000         17.95430275
         -6.03000000         21.93018835
         -6.02000000         32.73788531
         -6.01000000         43.54558227
         -6.00000000         11.54202235
         -5.99000000         10.42776921
         -5.98000000         10.59641755
         -5.97000000         14.77621137
         -5.96000000          8.45037317
         -5.95000000         13.89465130
         -5.94000000         19.33892944
         -5.93000000         21.95436052
         -5.92000000         20.25072057
         -5.91000000         18.54708062
         -5.90000000         16.84344067
         -5.89000000         15.13980072
         -5.88000000         13.43616077
         -5.87000000          0.00000000
         -5.86000000          0.00000000
         -5.85000000          0.00000000
         -5.84000000          0.00000000
         -5.83000000          0.00000000
         -5.82000000          0.00000000
         -5.81000000          0.00000000
         -5.80000000          0.00000000
         -5.79000000          0.00000000
         -5.78000000          0.00000000
         -5.77000000          0.00000000
         -5.76000000          0.00000000
         -5.75000000          0.00000000
         -5.74000000          0.00000000
         -5.73000000          0.00000000
         -5.72000000          0.00000000
         -5.71000000          0.00000000
         -5.70000000          0.00000000
         -5.69000000          0.00000000
         -5.68000000          0.00000000
         -5.67000000          0.00000000
         -5.66000000          0.00000000
         -5.65000000          0.00000000
         -5.64000000          0.00000000
         -5.63000000          0.00000000
         -5.62000000          0.00000000
         -5.61000000          0.00000000
         -5.60000000          0.00000000
         -5.59000000          0.00000000
         -5.58000000          0.00000000
         -5.57000000          0.00000000
         -5.56000000          0.00000000
         -5.55000000          0.00000000
         -5.54000000          0.00000000
         -5.53000000          0.00000000
         -5.52000000          0.00000000
         -5.51000000          0.00000000
         -5.50000000          0.00000000
         -5.49000000          0.00000000
         -5.48000000          0.00000000
         -5.47000000          0.00000000
         -5.46000000          0.00000000
         -5.45000000          0.00000000
         -5.44000000          0.00000000
         -5.43000000          0.00000000
         -5.42000000          0.00000000
         -5.41000000          0.00000000
         -5.40000000          0.00000000
         -5.39000000          0.00000000
         -5.38000000          0.00000000
         -5.37000000          0.00000000
         -5.36000000          0.00000000
         -5.35000000          0.00000000
         -5.34000000          0.00000000
         -5.33000000          0.00000000
         -5.32000000          0.00000000
         -5.31000000          0.00000000
         -5.30000000          0.00000000
         -5.29000000          0.00000000
         -5.28000000          0.00000000
         -5.27000000          0.00000000
         -5.26000000          0.00000000
         -5.25000000          0.00000000
         -5.24000000          0.00000000
         -5.23000000          0.00000000
         -5.22000000          0.00000000
         -5.21000000          0.00000000
         -5.20000000          0.00000000
         -5.19000000          0.00000000
         -5.18000000          0.00000000
         -5.17000000          0.00000000
         -5.16000000          0.00000000
         -5.15000000          0.00000000
         -5.14000000          0.00000000
         -5.13000000          0.00000000
         -5.12000000          0.00000000
         -5.11000000          0.00000000
         -5.10000000          0.00000000
         -5.09000000          0.00000000
         -5.08000000          0.00000000
         -5.07000000          0.00000000
         -5.06000000          0.00000000
         -5.05000000          0.00000000
         -5.04000000          0.00000000
         -5.03000000          0.00000000
         -5.02000000          0.00000000
         -5.01000000          0.00000000
         -5.00000000          0.00000000
         -4.99000000          0.00000000
         -4.98000000          0.00000000
         -4.97000000          0.00000000
         -4.96000000          0.00000000
         -4.95000000          0.00000000
         -4.94000000          0.00000000
         -4.93000000          0.00000000
         -4.92000000          0.00000000
         -4.91000000          0.00000000
         -4.90000000          0.00000000
         -4.89000000          0.00000000
         -4.88000000          0.00000000
         -4.87000000          0.00000000
         -4.86000000          0.00000000
         -4.85000000          0.00000000
         -4.84000000          0.00000000
         -4.83000000          0.00000000
         -4.82000000          0.00000000
         -4.81000000          0.00000000
         -4.80000000          0.00000000
         -4.79000000          0.00000000
         -4.78000000          0.00000000
         -4.77000000          0.00000000
         -4.76000000          0.00000000
         -4.75000000          0.00000000
         -4.74000000          0.00000000
         -4.73000000          0.00000000
         -4.72000000          0.00000000
         -4.71000000          0.00000000
         -4.70000000          0.00000000
         -4.69000000          0.00000000
         -4.68000000          0.00000000
         -4.67000000          0.00000000
         -4.66000000          0.00000000
         -4.65000000          0.00000000
         -4.64000000          0.00000000
         -4.63000000          0.00000000
         -4.62000000          0.00000000
         -4.61000000          0.00000000
         -4.60000000          0.00000000
         -4.59000000          0.00000000
         -4.58000000          0.00000000
         -4.57000000          0.00000000
         -4.56000000          0.00000000
         -4.55000000          0.00000000
         -4.54000000          0.00000000
         -4.53000000          0.00000000
         -4.52000000          0.00000000
         -4.51000000          0.00000000
         -4.50000000          0.00000000
         -4.49000000          0.00000000
         -4.48000000          0.00000000
         -4.47000000          0.00000000
         -4.46000000          0.00000000
         -4.45000000          0.00000000
         -4.44000000          0.00000000
         -4.43000000          0.00000000
         -4.42000000          0.00000000
         -4.41000000          0.00000000
         -4.40000000          0.00000000
         -4.39000000          0.00000000
         -4.38000000          0.00000000
         -4.37000000          0.00000000
         -4.36000000         85.90147290
         -4.35000000         79.27022535
         -4.34000000        196.45295198
         -4.33000000          0.00000000
         -4.32000000          0.00000000
         -4.31000000          0.00000000
         -4.30000000          0.00000000
         -4.29000000          0.00000000
         -4.28000000          0.00000000
         -4.27000000          0.00000000
         -4.26000000          0.00000000
         -4.25000000          0.00000000
         -4.24000000          0.00000000
         -4.23000000          0.00000000
         -4.22000000          0.00000000
         -4.21000000          0.00000000
         -4.20000000          0.00000000
         -4.19000000          0.00000000
         -4.18000000          0.00000000
         -4.17000000          0.00000000
         -4.16000000          0.00000000
         -4.15000000          0.00000000
         -4.14000000          0.00000000
         -4.13000000          0.00000000
         -4.12000000          0.00000000
         -4.11000000          0.00000000
         -4.10000000          0.00000000
         -4.09000000          0.00000000
         -4.08000000          0.00000000
         -4.07000000          0.00000000
         -4.06000000          0.00000000
         -4.05000000          0.00000000
         -4.04000000          0.00000000
         -4.03000000          0.00000000
         -4.02000000          0.00000000
         -4.01000000          0.00000000
         -4.00000000          0.00000000
         -3.99000000          0.00000000
         -3.98000000          0.00000000
         -3.97000000          0.00000000
         -3.96000000          0.00000000
         -3.95000000          0.00000000
         -3.94000000          0.00000000
         -3.93000000          0.00000000
         -3.92000000          9.39343427
         -3.91000000          9.93552115
         -3.90000000         10.47760803
         -3.89000000         11.01969491
         -3.88000000         11.56178179
         -3.87000000         12.10386867
         -3.86000000         12.64595556
         -3.85000000         13.18804244
         -3.84000000         13.25438004
         -3.83000000         11.87255525
         -3.82000000         10.49073046
         -3.81000000          9.10890567
         -3.80000000          9.46186865
         -3.79000000         11.28532128
         -3.78000000         25.27262329
         -3.77000000         24.09945905
         -3.76000000         64.77723241
         -3.75000000         40.78981586
         -3.74000000         18.68552156
         -3.73000000         16.56726112
         -3.72000000         14.44900069
         -3.71000000         12.33074025
         -3.70000000        143.68286283
         -3.69000000         53.35544622
         -3.68000000         52.30630517
         -3.67000000         59.35138349
         -3.66000000         29.92420050
         -3.65000000        166.66990466
         -3.64000000        109.95086325
         -3.63000000        122.37750476
         -3.62000000         89.19986092
         -3.61000000         96.98168536
         -3.60000000         87.39297255
         -3.59000000         78.29107279
         -3.58000000         72.25605191
         -3.57000000         72.63209483
         -3.56000000        129.88990129
         -3.55000000         89.35300625
         -3.54000000        144.20745017
         -3.53000000        130.73194096
         -3.52000000         91.67094493
         -3.51000000         62.89617492
         -3.50000000         95.84652649
         -3.49000000         27.95465864
         -3.48000000        116.31443053
         -3.47000000         54.39417913
         -3.46000000         26.63522559
         -3.45000000         45.55887920
         -3.44000000         36.74331426
         -3.43000000         71.71575580
         -3.42000000         51.21602225
         -3.41000000         61.50528719
         -3.40000000         60.45819223
         -3.39000000         59.41109726
         -3.38000000         48.66674452
         -3.37000000         35.22186073
         -3.36000000         21.77697693
         -3.35000000         22.49383507
         -3.34000000         36.56553346
         -3.33000000         14.79794453
         -3.32000000          1.02821845
         -3.31000000         67.23052553
         -3.30000000         60.90174908
         -3.29000000         13.70023503
         -3.28000000         90.92900755
         -3.27000000         17.40340907
         -3.26000000          8.66478069
         -3.25000000         86.67532717
         -3.24000000         74.50516915
         -3.23000000         14.31113888
         -3.22000000         94.73962102
         -3.21000000         73.85207928
         -3.20000000         75.46663264
         -3.19000000         16.12664665
         -3.18000000         22.63549773
         -3.17000000        137.75437570
         -3.16000000         54.80223119
         -3.15000000         14.49255430
         -3.14000000        102.13214723
         -3.13000000         60.18121460
         -3.12000000         67.86132391
         -3.11000000         64.98785582
         -3.10000000         81.49980194
         -3.09000000         84.80698712
         -3.08000000         35.12024989
         -3.07000000         32.99466164
         -3.06000000         15.46567611
         -3.05000000         35.72713174
         -3.04000000         16.47725785
         -3.03000000         24.81092549
         -3.02000000         54.76262697
         -3.01000000         78.90729685
         -3.00000000        111.94561693
         -2.99000000        137.47577281
         -2.98000000        115.94772572
         -2.97000000         72.78761475
         -2.96000000        145.90062864
         -2.95000000         62.70305302
         -2.94000000         82.53788050
         -2.93000000         86.01130487
         -2.92000000         98.23131287
         -2.91000000        131.08678323
         -2.90000000         57.59649678
         -2.89000000         27.97485126
         -2.88000000         80.58350789
         -2.87000000        151.77875576
         -2.86000000        647.30121733
         -2.85000000         69.95152261
         -2.84000000         86.64083509
         -2.83000000         53.89150277
         -2.82000000         74.97235646
         -2.81000000         57.00470225
         -2.80000000         74.06306143
         -2.79000000         80.74468179
         -2.78000000         59.43470949
         -2.77000000        141.38987456
         -2.76000000        133.18182108
         -2.75000000         54.68220551
         -2.74000000         95.60476728
         -2.73000000         73.30310311
         -2.72000000         56.12595688
         -2.71000000         70.15882337
         -2.70000000         84.31584010
         -2.69000000         56.23262589
         -2.68000000         96.20673661
         -2.67000000         83.00150190
         -2.66000000         27.45045086
         -2.65000000          0.30540067
         -2.64000000          1.93227557
         -2.63000000          3.68175214
         -2.62000000         44.34595623
         -2.61000000         59.63397470
         -2.60000000         79.42555972
         -2.59000000        112.02454698
         -2.58000000         26.23484376
         -2.57000000         50.95675262
         -2.56000000         50.99567881
         -2.55000000         72.03664218
         -2.54000000         95.89220034
         -2.53000000         82.32004087
         -2.52000000         47.12900614
         -2.51000000        104.22678300
         -2.50000000         67.95762500
         -2.49000000         60.39414700
         -2.48000000         79.14383019
         -2.47000000        129.65797397
         -2.46000000         80.68327658
         -2.45000000         96.69135541
         -2.44000000         91.73118618
         -2.43000000        119.15083759
         -2.42000000         81.10475484
         -2.41000000        107.98522603
         -2.40000000         71.02779599
         -2.39000000         58.49354088
         -2.38000000         60.81871816
         -2.37000000         51.55934910
         -2.36000000         65.42948777
         -2.35000000         72.97143477
         -2.34000000         85.55898556
         -2.33000000         70.51991306
         -2.32000000         29.13789333
         -2.31000000         12.66690930
         -2.30000000         84.89441043
         -2.29000000         72.36955816
         -2.28000000         10.10881124
         -2.27000000          0.00000000
         -2.26000000         80.65482869
         -2.25000000        125.59321454
         -2.24000000         95.96500807
         -2.23000000         46.04649472
         -2.22000000        109.64694148
         -2.21000000         35.40698947
         -2.20000000         20.53128748
         -2.19000000         28.17004771
         -2.18000000         35.80880794
         -2.17000000         43.62396292
         -2.16000000        296.49783881
         -2.15000000          0.00000000
         -2.14000000          0.00000000
         -2.13000000         43.85403909
         -2.12000000         26.78531788
         -2.11000000         23.61967742
         -2.10000000         20.45403696
         -2.09000000         17.28839650
         -2.08000000         14.12275604
         -2.07000000         37.81850931
         -2.06000000         58.97767728
         -2.05000000         26.28516721
         -2.04000000         22.82501898
         -2.03000000         24.50902908
         -2.02000000         34.18547552
         -2.01000000         43.86192196
         -2.00000000         15.45426898
         -1.99000000         19.18809054
         -1.98000000         11.48378414
         -1.97000000         12.19553348
         -1.96000000         12.90728282
         -1.95000000         13.61903216
         -1.94000000         14.50760082
         -1.93000000         57.59476354
         -1.92000000         62.72563544
         -1.91000000         66.23809680
         -1.90000000         52.57277930
         -1.89000000         24.97096913
         -1.88000000         38.41440625
         -1.87000000         51.85784336
         -1.86000000         65.30128047
         -1.85000000          8.56719109
         -1.84000000         50.15018211
         -1.83000000         33.73900963
         -1.82000000         28.26703664
         -1.81000000         22.79506366
         -1.80000000        100.85162456
         -1.79000000         53.41929587
         -1.78000000         44.00810502
         -1.77000000         27.18344648
         -1.76000000         98.90069734
         -1.75000000         47.77609904
         -1.74000000         38.15584714
         -1.73000000         28.53559524
         -1.72000000         18.91534334
         -1.71000000         18.32748093
         -1.70000000         16.62827687
         -1.69000000         18.41417878
         -1.68000000         20.20008068
         -1.67000000         22.34279504
         -1.66000000         70.22942261
         -1.65000000         13.67448849
         -1.64000000         11.16001452
         -1.63000000         25.61054096
         -1.62000000         29.26231770
         -1.61000000         46.76767633
         -1.60000000         54.52404462
         -1.59000000         63.69276821
         -1.58000000         51.25841396
         -1.57000000         39.77910934
         -1.56000000         35.93097003
         -1.55000000          0.00000000
         -1.54000000          7.75802023
         -1.53000000         26.36280547
         -1.52000000         23.45579644
         -1.51000000         20.54878741
         -1.50000000         17.64177838
         -1.49000000         14.73476935
         -1.48000000         18.21688373
         -1.47000000         30.40580364
         -1.46000000         28.30926686
         -1.45000000         26.21273009
         -1.44000000         27.24788471
         -1.43000000         29.53460981
         -1.42000000         31.82133491
         -1.41000000         34.10806001
         -1.40000000         20.54779271
         -1.39000000         22.40157776
         -1.38000000         24.25536281
         -1.37000000         26.10914786
         -1.36000000         22.43772983
         -1.35000000         21.96820386
         -1.34000000         21.49867790
         -1.33000000         21.02915193
         -1.32000000         20.55962596
         -1.31000000          4.65611413
         -1.30000000          5.13430178
         -1.29000000          5.61248943
         -1.28000000         38.35064785
         -1.27000000         44.03179923
         -1.26000000         86.98694323
         -1.25000000         39.14690715
         -1.24000000         11.10320509
         -1.23000000         11.23461998
         -1.22000000         11.36603486
         -1.21000000         21.19727364
         -1.20000000         32.94147172
         -1.19000000         24.78106308
         -1.18000000         38.53324932
         -1.17000000         36.53555804
         -1.16000000         34.53786677
         -1.15000000         32.54017549
         -1.14000000         35.03867942
         -1.13000000         33.44444621
         -1.12000000         34.15943900
         -1.11000000         36.82511766
         -1.10000000         25.70063800
         -1.09000000         68.56524876
         -1.08000000        274.88437333
         -1.07000000         12.63951801
         -1.06000000         12.05343535
         -1.05000000         15.39193988
         -1.04000000         25.50982050
         -1.03000000         38.47474627
         -1.02000000         51.43967204
         -1.01000000         33.07172787
         -1.00000000         38.65375406
         -0.99000000         47.86907432
         -0.98000000         57.08439458
         -0.97000000         66.29971484
         -0.96000000         62.01539968
         -0.95000000         63.68434270
         -0.94000000         46.18325957
         -0.93000000         45.46671380
         -0.92000000         44.75016804
         -0.91000000         75.65134627
         -0.90000000        111.75626563
         -0.89000000        109.71673699
         -0.88000000         93.74809270
         -0.87000000        103.67750864
         -0.86000000         75.22844390
         -0.85000000         88.73528324
         -0.84000000         72.24997320
         -0.83000000         80.17601131
         -0.82000000         70.63219704
         -0.81000000         67.78367100
         -0.80000000         80.41787565
         -0.79000000         54.77100743
         -0.78000000         34.12554802
         -0.77000000         29.18166346
         -0.76000000         20.03273410
         -0.75000000         14.14434008
         -0.74000000         15.38584873
         -0.73000000         16.62735737
         -0.72000000         17.86886601
         -0.71000000         19.11037465
         -0.70000000         21.68615795
         -0.69000000         54.30926567
         -0.68000000         55.73785680
         -0.67000000         48.94175840
         -0.66000000         36.06829556
         -0.65000000          0.00000000
         -0.64000000         14.78285574
         -0.63000000         67.47805274
         -0.62000000         29.13853630
         -0.61000000         25.70554666
         -0.60000000         22.34034847
         -0.59000000         18.97515027
         -0.58000000         15.60995207
         -0.57000000          4.58959309
         -0.56000000          5.44128419
         -0.55000000          6.29297529
         -0.54000000          7.14466639
         -0.53000000          7.99635748
         -0.52000000          8.84804858
         -0.51000000         43.60103325
         -0.50000000         35.79579257
         -0.49000000         27.99055188
         -0.48000000         20.18531119
         -0.47000000         12.38007050
         -0.46000000          4.57482981
         -0.45000000          8.28497614
         -0.44000000          9.49875200
         -0.43000000         10.71252786
         -0.42000000         11.92630372
         -0.41000000         13.14007958
         -0.40000000         14.35385544
         -0.39000000         15.56763130
         -0.38000000         16.78140716
         -0.37000000         26.06915707
         -0.36000000         46.78084548
         -0.35000000          0.00000000
         -0.34000000          0.00000000
         -0.33000000          0.00000000
         -0.32000000          0.00000000
         -0.31000000          0.00000000
         -0.30000000          0.00000000
         -0.29000000          0.00000000
         -0.28000000          0.00000000
         -0.27000000          0.00000000
         -0.26000000          0.00000000
         -0.25000000          0.00000000
         -0.24000000          0.00000000
         -0.23000000          0.00000000
         -0.22000000          0.00000000
         -0.21000000          0.00000000
         -0.20000000          0.00000000
         -0.19000000          0.00000000
         -0.18000000          0.00000000
         -0.17000000          0.00000000
         -0.16000000          0.00000000
         -0.15000000          0.00000000
         -0.14000000          0.00000000
         -0.13000000          0.00000000
         -0.12000000          0.00000000
         -0.11000000          0.00000000
         -0.10000000          0.00000000
         -0.09000000          0.00000000
         -0.08000000          0.00000000
         -0.07000000          0.00000000
         -0.06000000          0.00000000
         -0.05000000          0.00000000
         -0.04000000          0.00000000
         -0.03000000          0.00000000
         -0.02000000          0.00000000
         -0.01000000          0.00000000
          0.00000000          0.00000000
