# total density of states output by FHI-aims 
# The energy reference for this output is the vacuum level
#    Energy (eV)      DOS 
        -10.00000000         27.06188923
         -9.99000000         24.66067444
         -9.98000000         68.50106833
         -9.97000000         37.09058062
         -9.96000000         30.51198721
         -9.95000000         28.04556176
         -9.94000000         28.05950307
         -9.93000000         28.07344437
         -9.92000000         28.08738567
         -9.91000000         28.10132697
         -9.90000000         33.76712084
         -9.89000000         26.82963956
         -9.88000000         31.71166718
         -9.87000000         44.77075012
         -9.86000000         40.31699793
         -9.85000000         36.48530936
         -9.84000000         40.15231825
         -9.83000000         43.74518019
         -9.82000000         46.32546219
         -9.81000000         38.79725479
         -9.80000000         33.04029998
         -9.79000000         27.95284805
         -9.78000000         23.09213836
         -9.77000000         21.55075510
         -9.76000000         20.96410713
         -9.75000000         20.37745916
         -9.74000000         20.42624793
         -9.73000000         26.01677549
         -9.72000000         30.62023346
         -9.71000000         38.17567444
         -9.70000000         42.96021645
         -9.69000000         43.11373977
         -9.68000000         42.89403208
         -9.67000000         50.17149165
         -9.66000000         61.28718149
         -9.65000000         25.24485045
         -9.64000000         47.49198591
         -9.63000000         55.80237762
         -9.62000000         61.74968034
         -9.61000000         83.79946465
         -9.60000000         40.29611673
         -9.59000000         51.79525060
         -9.58000000         53.12894394
         -9.57000000         55.74070621
         -9.56000000         25.31509590
         -9.55000000         69.40131978
         -9.54000000         43.00074680
         -9.53000000         77.71364568
         -9.52000000         82.93577088
         -9.51000000         87.44975734
         -9.50000000         83.27707251
         -9.49000000        104.27556329
         -9.48000000         39.57069406
         -9.47000000         11.81381214
         -9.46000000         69.76095589
         -9.45000000         51.49525992
         -9.44000000         98.16919812
         -9.43000000        116.46688071
         -9.42000000         36.53427942
         -9.41000000         85.12587419
         -9.40000000        117.80000306
         -9.39000000         83.11669612
         -9.38000000         87.62959977
         -9.37000000         63.39996280
         -9.36000000         58.54098597
         -9.35000000         84.04547828
         -9.34000000        100.09472885
         -9.33000000         67.55453497
         -9.32000000         58.31923376
         -9.31000000         63.22163878
         -9.30000000         98.90385270
         -9.29000000         67.32768791
         -9.28000000         65.28212015
         -9.27000000         66.89155839
         -9.26000000         90.31940321
         -9.25000000         69.65848649
         -9.24000000         60.89235304
         -9.23000000         69.21408184
         -9.22000000         57.80095803
         -9.21000000         42.37714389
         -9.20000000         67.64805845
         -9.19000000         46.13813710
         -9.18000000         53.50133190
         -9.17000000         44.63884222
         -9.16000000         37.71571868
         -9.15000000         42.65333812
         -9.14000000        145.37524969
         -9.13000000         57.76527278
         -9.12000000         26.03981673
         -9.11000000         68.71957149
         -9.10000000         41.13566601
         -9.09000000         62.91215663
         -9.08000000         64.36253887
         -9.07000000         31.00055299
         -9.06000000         71.12151054
         -9.05000000         62.04540518
         -9.04000000         34.83075467
         -9.03000000         82.11152849
         -9.02000000        136.75371824
         -9.01000000         81.38864907
         -9.00000000         53.84026720
         -8.99000000         44.83974980
         -8.98000000         28.61172941
         -8.97000000         43.76269064
         -8.96000000         39.29113127
         -8.95000000         37.69092842
         -8.94000000         69.02001737
         -8.93000000         56.71384029
         -8.92000000         45.93975787
         -8.91000000         56.88343153
         -8.90000000         86.35833052
         -8.89000000         35.47968251
         -8.88000000         44.13344838
         -8.87000000         25.14333220
         -8.86000000         37.16407637
         -8.85000000         48.70718798
         -8.84000000         51.04146318
         -8.83000000         46.12207576
         -8.82000000         49.07655449
         -8.81000000         43.46673015
         -8.80000000         58.62431864
         -8.79000000         34.36250751
         -8.78000000         38.14283635
         -8.77000000         41.31153297
         -8.76000000         32.00725455
         -8.75000000          7.22731278
         -8.74000000         11.61470145
         -8.73000000         16.00209012
         -8.72000000         20.38947879
         -8.71000000         26.24015008
         -8.70000000         32.70715041
         -8.69000000         57.35980033
         -8.68000000         37.91606523
         -8.67000000         47.43462684
         -8.66000000         47.60065967
         -8.65000000         25.53860097
         -8.64000000         29.77017829
         -8.63000000         40.56189170
         -8.62000000         51.96426644
         -8.61000000         53.96786181
         -8.60000000         38.66870540
         -8.59000000         31.22392343
         -8.58000000         27.93643379
         -8.57000000         27.64456850
         -8.56000000         33.93089137
         -8.55000000         40.47386612
         -8.54000000         26.77337408
         -8.53000000         50.62566338
         -8.52000000         17.75214652
         -8.51000000         18.20694217
         -8.50000000         28.80194703
         -8.49000000         36.00054757
         -8.48000000         40.10226406
         -8.47000000         44.58862102
         -8.46000000         54.01501493
         -8.45000000         30.58674431
         -8.44000000         40.30978255
         -8.43000000         50.03282078
         -8.42000000         37.29492908
         -8.41000000         49.19072656
         -8.40000000         26.27048324
         -8.39000000         26.18003548
         -8.38000000         27.50071380
         -8.37000000         36.19236227
         -8.36000000         44.71281086
         -8.35000000         21.54611130
         -8.34000000         26.50576614
         -8.33000000         68.47767941
         -8.32000000         57.53851056
         -8.31000000         51.52920533
         -8.30000000         58.90078989
         -8.29000000         50.59338271
         -8.28000000         22.46711123
         -8.27000000        129.82631645
         -8.26000000         36.97852423
         -8.25000000         64.74823466
         -8.24000000         80.20330722
         -8.23000000         88.85567359
         -8.22000000         53.32868520
         -8.21000000         29.26691908
         -8.20000000         47.12809595
         -8.19000000         63.75541599
         -8.18000000         80.89932636
         -8.17000000         80.57372054
         -8.16000000         76.61482264
         -8.15000000         87.31661652
         -8.14000000        100.59089043
         -8.13000000         68.48320442
         -8.12000000         92.82768406
         -8.11000000         95.96050323
         -8.10000000        109.64449846
         -8.09000000        103.98526413
         -8.08000000        109.20800691
         -8.07000000        100.28098478
         -8.06000000         84.64016294
         -8.05000000         78.92512716
         -8.04000000         88.68282894
         -8.03000000         90.21654184
         -8.02000000         71.87567803
         -8.01000000         87.78852801
         -8.00000000         83.60532339
         -7.99000000         74.35941168
         -7.98000000         68.53931702
         -7.97000000         86.93375062
         -7.96000000         98.87204206
         -7.95000000         51.43457877
         -7.94000000         52.06120120
         -7.93000000         88.43594125
         -7.92000000         59.16433359
         -7.91000000         49.41111284
         -7.90000000         45.75661456
         -7.89000000         61.09585555
         -7.88000000         57.91746037
         -7.87000000         47.52665971
         -7.86000000         67.30041107
         -7.85000000         54.43420841
         -7.84000000         35.15528625
         -7.83000000         61.67976958
         -7.82000000        154.62691108
         -7.81000000         82.23836067
         -7.80000000         76.10116452
         -7.79000000         68.56375539
         -7.78000000         79.17857017
         -7.77000000         86.96507721
         -7.76000000         54.04368731
         -7.75000000        123.87546571
         -7.74000000        140.30298193
         -7.73000000         36.64432486
         -7.72000000          9.76280047
         -7.71000000         37.85484818
         -7.70000000        115.21054275
         -7.69000000        106.90443552
         -7.68000000         47.14956315
         -7.67000000         72.03017324
         -7.66000000         80.87756764
         -7.65000000         38.83739101
         -7.64000000         46.61545928
         -7.63000000         55.72761541
         -7.62000000         73.21506792
         -7.61000000         42.92770802
         -7.60000000         43.24533029
         -7.59000000         53.37297592
         -7.58000000         53.94702345
         -7.57000000         44.39140918
         -7.56000000         53.17342418
         -7.55000000         35.73642742
         -7.54000000         41.09001401
         -7.53000000         50.92969855
         -7.52000000         57.31510255
         -7.51000000         48.93873020
         -7.50000000         66.83020855
         -7.49000000         35.23072073
         -7.48000000         33.66102077
         -7.47000000         70.99862122
         -7.46000000         36.30800550
         -7.45000000         35.28694015
         -7.44000000         33.33559083
         -7.43000000         75.42904875
         -7.42000000         44.63252492
         -7.41000000         56.51784120
         -7.40000000         58.89385921
         -7.39000000         38.66232966
         -7.38000000         47.93812958
         -7.37000000         38.30192563
         -7.36000000         39.60247237
         -7.35000000         48.05231578
         -7.34000000         70.03466917
         -7.33000000        134.63731732
         -7.32000000         23.28017890
         -7.31000000         22.14049586
         -7.30000000         21.00081281
         -7.29000000         92.23796117
         -7.28000000         70.16715041
         -7.27000000         33.30763566
         -7.26000000         78.26918601
         -7.25000000         63.63566331
         -7.24000000         44.99367156
         -7.23000000         53.88262190
         -7.22000000         72.82644348
         -7.21000000         64.17289929
         -7.20000000         62.58974198
         -7.19000000         66.89892089
         -7.18000000         55.84227209
         -7.17000000         10.35812797
         -7.16000000         33.60000347
         -7.15000000        135.48016064
         -7.14000000          7.52426932
         -7.13000000         46.76056850
         -7.12000000         46.90618341
         -7.11000000         47.05179832
         -7.10000000         63.04132442
         -7.09000000          6.46007157
         -7.08000000         45.95263102
         -7.07000000         71.98194959
         -7.06000000         86.40372211
         -7.05000000         22.12319349
         -7.04000000         39.59841032
         -7.03000000         42.63983171
         -7.02000000         45.68125310
         -7.01000000         53.53126399
         -7.00000000         60.67160431
         -6.99000000         54.83968655
         -6.98000000         70.19105808
         -6.97000000         18.38482515
         -6.96000000         42.94253502
         -6.95000000         74.72336808
         -6.94000000         21.93042106
         -6.93000000         20.74578377
         -6.92000000         25.11905355
         -6.91000000         29.14623959
         -6.90000000         33.05565968
         -6.89000000         26.61342442
         -6.88000000         19.29334273
         -6.87000000         15.99181693
         -6.86000000         17.22218146
         -6.85000000         72.02673282
         -6.84000000         77.54874444
         -6.83000000         42.35465194
         -6.82000000         28.83366531
         -6.81000000         51.71518918
         -6.80000000         38.60438037
         -6.79000000         67.35795246
         -6.78000000         60.29560510
         -6.77000000        120.77487249
         -6.76000000         33.10875590
         -6.75000000         57.71650095
         -6.74000000         62.65719389
         -6.73000000         66.78505314
         -6.72000000         53.73936822
         -6.71000000         61.78644827
         -6.70000000         32.54680956
         -6.69000000         95.04188183
         -6.68000000         68.57430794
         -6.67000000         61.27961491
         -6.66000000         61.23287271
         -6.65000000         66.42583441
         -6.64000000         80.51389121
         -6.63000000         47.26487601
         -6.62000000         98.40408820
         -6.61000000        116.79836379
         -6.60000000         56.87028967
         -6.59000000         57.49097261
         -6.58000000         47.16155795
         -6.57000000         44.89416609
         -6.56000000         53.26921171
         -6.55000000         55.43483885
         -6.54000000         56.99140453
         -6.53000000         63.14705489
         -6.52000000         70.96207575
         -6.51000000         53.23709587
         -6.50000000         55.00441660
         -6.49000000         57.85551905
         -6.48000000         61.71628242
         -6.47000000         61.47470144
         -6.46000000         83.44139597
         -6.45000000         48.51350711
         -6.44000000         57.83695814
         -6.43000000         60.28114143
         -6.42000000         34.43092940
         -6.41000000        101.41929234
         -6.40000000         16.99879218
         -6.39000000         18.20973682
         -6.38000000         50.52292885
         -6.37000000         22.21000811
         -6.36000000         68.45990168
         -6.35000000         80.83872802
         -6.34000000         14.09891266
         -6.33000000        151.50735369
         -6.32000000         45.00598981
         -6.31000000         22.20803655
         -6.30000000         27.35379574
         -6.29000000         42.23351065
         -6.28000000         56.18569147
         -6.27000000         44.37680692
         -6.26000000          7.17197162
         -6.25000000         42.07390788
         -6.24000000         17.40582787
         -6.23000000         36.10931835
         -6.22000000         35.86542216
         -6.21000000         39.78935653
         -6.20000000         43.71329089
         -6.19000000         29.36853805
         -6.18000000         27.52104016
         -6.17000000         26.03121535
         -6.16000000         23.09277955
         -6.15000000         22.76729556
         -6.14000000         19.93893397
         -6.13000000         38.13201539
         -6.12000000         22.74011688
         -6.11000000         20.36702052
         -6.10000000         23.24896737
         -6.09000000         26.13091423
         -6.08000000         28.32417804
         -6.07000000         20.49778587
         -6.06000000         74.85427969
         -6.05000000         22.41529916
         -6.04000000         31.30207377
         -6.03000000         81.01762467
         -6.02000000         43.53122937
         -6.01000000          1.60642519
         -6.00000000          0.00000000
         -5.99000000          0.00000000
         -5.98000000          0.00000000
         -5.97000000          0.00000000
         -5.96000000          0.00000000
         -5.95000000          0.00000000
         -5.94000000          0.00000000
         -5.93000000          0.00000000
         -5.92000000          0.00000000
         -5.91000000          0.00000000
         -5.90000000          0.00000000
         -5.89000000         51.58590457
         -5.88000000         52.57582629
         -5.87000000         56.75403570
         -5.86000000         47.93629745
         -5.85000000          0.00000000
         -5.84000000          0.00000000
         -5.83000000          0.00000000
         -5.82000000          0.00000000
         -5.81000000          0.00000000
         -5.80000000          0.00000000
         -5.79000000          0.00000000
         -5.78000000          0.00000000
         -5.77000000          0.00000000
         -5.76000000         14.99824583
         -5.75000000         32.38857215
         -5.74000000         49.27758908
         -5.73000000         82.18801416
         -5.72000000         81.48477744
         -5.71000000         76.78329861
         -5.70000000        114.08517041
         -5.69000000          0.00000000
         -5.68000000          0.00000000
         -5.67000000          0.00000000
         -5.66000000          0.00000000
         -5.65000000          0.00000000
         -5.64000000          0.00000000
         -5.63000000          0.00000000
         -5.62000000          0.00000000
         -5.61000000          0.00000000
         -5.60000000          0.00000000
         -5.59000000          0.00000000
         -5.58000000          0.00000000
         -5.57000000          0.00000000
         -5.56000000          0.00000000
         -5.55000000          0.00000000
         -5.54000000          0.00000000
         -5.53000000          0.00000000
         -5.52000000          0.00000000
         -5.51000000          0.00000000
         -5.50000000          0.00000000
         -5.49000000          0.00000000
         -5.48000000          0.00000000
         -5.47000000          0.00000000
         -5.46000000          0.00000000
         -5.45000000          0.00000000
         -5.44000000          0.00000000
         -5.43000000          0.00000000
         -5.42000000          0.00000000
         -5.41000000          0.00000000
         -5.40000000          0.00000000
         -5.39000000          0.00000000
         -5.38000000          0.00000000
         -5.37000000          0.00000000
         -5.36000000          0.00000000
         -5.35000000          0.00000000
         -5.34000000          0.00000000
         -5.33000000          0.00000000
         -5.32000000          0.00000000
         -5.31000000          0.00000000
         -5.30000000          0.00000000
         -5.29000000          0.00000000
         -5.28000000          0.00000000
         -5.27000000          0.00000000
         -5.26000000          0.00000000
         -5.25000000          0.00000000
         -5.24000000          0.00000000
         -5.23000000          0.00000000
         -5.22000000          0.00000000
         -5.21000000          0.00000000
         -5.20000000          0.00000000
         -5.19000000          0.00000000
         -5.18000000          0.00000000
         -5.17000000          0.00000000
         -5.16000000          0.00000000
         -5.15000000         77.17918946
         -5.14000000         82.60531353
         -5.13000000         18.90857672
         -5.12000000          0.00000000
         -5.11000000          0.00000000
         -5.10000000          0.00000000
         -5.09000000          0.00000000
         -5.08000000          0.00000000
         -5.07000000          0.00000000
         -5.06000000          0.00000000
         -5.05000000          0.00000000
         -5.04000000          0.00000000
         -5.03000000          0.00000000
         -5.02000000          0.00000000
         -5.01000000          0.00000000
         -5.00000000          0.00000000
         -4.99000000          0.00000000
         -4.98000000          0.00000000
         -4.97000000          0.00000000
         -4.96000000          0.00000000
         -4.95000000          0.00000000
         -4.94000000          0.00000000
         -4.93000000          0.00000000
         -4.92000000          0.00000000
         -4.91000000          0.00000000
         -4.90000000          0.00000000
         -4.89000000          0.00000000
         -4.88000000          0.00000000
         -4.87000000          0.00000000
         -4.86000000          0.00000000
         -4.85000000          0.00000000
         -4.84000000          0.00000000
         -4.83000000          0.00000000
         -4.82000000          0.00000000
         -4.81000000          0.00000000
         -4.80000000          0.00000000
         -4.79000000          0.00000000
         -4.78000000          0.00000000
         -4.77000000          0.00000000
         -4.76000000          0.00000000
         -4.75000000          0.00000000
         -4.74000000          0.00000000
         -4.73000000          0.00000000
         -4.72000000          0.00000000
         -4.71000000          0.00000000
         -4.70000000          0.00000000
         -4.69000000          0.00000000
         -4.68000000          0.00000000
         -4.67000000          0.00000000
         -4.66000000          0.00000000
         -4.65000000          0.00000000
         -4.64000000          0.00000000
         -4.63000000          0.00000000
         -4.62000000          0.00000000
         -4.61000000          0.00000000
         -4.60000000          0.00000000
         -4.59000000          0.00000000
         -4.58000000          0.00000000
         -4.57000000          0.00000000
         -4.56000000          0.00000000
         -4.55000000          0.00000000
         -4.54000000          0.00000000
         -4.53000000          0.00000000
         -4.52000000          0.00000000
         -4.51000000          0.00000000
         -4.50000000          0.00000000
         -4.49000000          0.00000000
         -4.48000000          0.00000000
         -4.47000000          0.00000000
         -4.46000000          0.00000000
         -4.45000000          0.00000000
         -4.44000000          0.00000000
         -4.43000000          0.00000000
         -4.42000000          0.00000000
         -4.41000000          0.00000000
         -4.40000000          0.00000000
         -4.39000000          0.00000000
         -4.38000000          0.00000000
         -4.37000000          0.00000000
         -4.36000000          0.00000000
         -4.35000000         44.61681524
         -4.34000000         91.12303988
         -4.33000000         62.30824112
         -4.32000000          0.00000000
         -4.31000000          0.00000000
         -4.30000000          0.00000000
         -4.29000000          0.00000000
         -4.28000000          0.00000000
         -4.27000000          0.00000000
         -4.26000000          0.00000000
         -4.25000000          0.00000000
         -4.24000000          0.00000000
         -4.23000000          0.00000000
         -4.22000000          0.00000000
         -4.21000000          0.00000000
         -4.20000000          0.00000000
         -4.19000000          0.00000000
         -4.18000000          0.00000000
         -4.17000000          0.00000000
         -4.16000000          1.31127743
         -4.15000000        128.16110617
         -4.14000000          0.00000000
         -4.13000000         64.10944087
         -4.12000000         86.40900423
         -4.11000000         48.49339557
         -4.10000000          0.00000000
         -4.09000000          0.00000000
         -4.08000000          0.00000000
         -4.07000000          0.00000000
         -4.06000000          0.00000000
         -4.05000000          0.00000000
         -4.04000000          0.00000000
         -4.03000000          0.00000000
         -4.02000000          0.00000000
         -4.01000000          0.00000000
         -4.00000000          0.00000000
         -3.99000000          0.00000000
         -3.98000000          0.00000000
         -3.97000000          0.00000000
         -3.96000000          0.00000000
         -3.95000000          0.00000000
         -3.94000000          0.00000000
         -3.93000000          0.00000000
         -3.92000000          0.00000000
         -3.91000000          0.00000000
         -3.90000000          0.00000000
         -3.89000000          0.00000000
         -3.88000000          0.00000000
         -3.87000000          0.00000000
         -3.86000000          0.00000000
         -3.85000000          0.00000000
         -3.84000000          0.00000000
         -3.83000000          0.00000000
         -3.82000000          0.00000000
         -3.81000000          0.00000000
         -3.80000000          0.00000000
         -3.79000000          0.00000000
         -3.78000000          0.00000000
         -3.77000000         31.60191670
         -3.76000000        126.55071716
         -3.75000000         40.48725108
         -3.74000000         23.52654568
         -3.73000000          6.56584028
         -3.72000000          4.23691839
         -3.71000000          2.20783590
         -3.70000000          0.17875341
         -3.69000000        364.76720890
         -3.68000000          0.39105376
         -3.67000000         33.62005040
         -3.66000000         51.74850168
         -3.65000000         67.95978393
         -3.64000000         60.88219233
         -3.63000000         74.84764682
         -3.62000000         85.66574941
         -3.61000000         71.05501789
         -3.60000000         38.73272529
         -3.59000000         89.88253328
         -3.58000000        104.97647025
         -3.57000000         45.31912342
         -3.56000000          4.83441692
         -3.55000000        148.98411207
         -3.54000000         75.17023804
         -3.53000000         79.10473710
         -3.52000000         24.49271783
         -3.51000000        132.08332267
         -3.50000000         72.68051844
         -3.49000000        124.78624828
         -3.48000000         67.74181036
         -3.47000000         50.45866795
         -3.46000000        118.18167125
         -3.45000000         62.68127431
         -3.44000000        159.38039455
         -3.43000000         53.31801088
         -3.42000000         59.03361927
         -3.41000000         62.06780024
         -3.40000000         83.62610017
         -3.39000000         72.26570522
         -3.38000000         92.70742973
         -3.37000000        126.84882850
         -3.36000000         60.90047640
         -3.35000000        103.24658703
         -3.34000000         49.90003602
         -3.33000000         33.69807406
         -3.32000000         14.61172912
         -3.31000000         28.67948528
         -3.30000000         92.73292093
         -3.29000000         71.78562310
         -3.28000000         56.08042860
         -3.27000000         45.25047859
         -3.26000000         74.81040115
         -3.25000000         83.23654595
         -3.24000000         56.63422465
         -3.23000000         55.96712540
         -3.22000000         71.27650260
         -3.21000000         32.94222951
         -3.20000000         42.53609617
         -3.19000000         50.29822294
         -3.18000000         40.12142369
         -3.17000000         48.56596244
         -3.16000000         97.37227097
         -3.15000000         56.90688873
         -3.14000000         96.35924031
         -3.13000000         28.27325254
         -3.12000000          0.00000000
         -3.11000000        319.29249141
         -3.10000000         66.77242774
         -3.09000000         66.32954136
         -3.08000000          9.26533600
         -3.07000000         16.20091316
         -3.06000000         76.57214582
         -3.05000000        150.46972419
         -3.04000000         74.50556892
         -3.03000000        133.63758520
         -3.02000000         28.26983628
         -3.01000000         68.86365466
         -3.00000000         89.09339728
         -2.99000000         70.87579787
         -2.98000000         85.77175557
         -2.97000000         95.76005261
         -2.96000000         79.16813021
         -2.95000000         76.51056909
         -2.94000000         70.32502496
         -2.93000000         48.33086342
         -2.92000000        101.80294524
         -2.91000000         93.42125371
         -2.90000000         91.56576848
         -2.89000000        133.22119578
         -2.88000000         90.04456380
         -2.87000000         58.31309985
         -2.86000000         52.49424607
         -2.85000000         42.89726529
         -2.84000000        194.74507769
         -2.83000000         55.37669162
         -2.82000000        128.57046656
         -2.81000000         53.02632706
         -2.80000000         65.58238760
         -2.79000000        145.80857968
         -2.78000000        110.48043950
         -2.77000000        129.52342251
         -2.76000000        106.95307175
         -2.75000000         98.84286488
         -2.74000000        112.20075889
         -2.73000000         53.80337402
         -2.72000000        135.05753360
         -2.71000000         75.75554941
         -2.70000000        128.93571984
         -2.69000000         57.71700224
         -2.68000000         54.18060830
         -2.67000000         12.51122652
         -2.66000000         42.32350303
         -2.65000000         78.99121627
         -2.64000000        127.38845121
         -2.63000000         49.97678189
         -2.62000000        126.35985799
         -2.61000000         76.60006011
         -2.60000000         64.95854370
         -2.59000000         84.32630202
         -2.58000000         56.35746494
         -2.57000000         87.09831971
         -2.56000000         79.44057542
         -2.55000000         33.55748386
         -2.54000000         60.31389350
         -2.53000000        186.50487537
         -2.52000000        126.82784766
         -2.51000000         88.21885350
         -2.50000000         53.23736749
         -2.49000000        116.77001047
         -2.48000000        112.67967332
         -2.47000000         83.60390278
         -2.46000000         71.71498166
         -2.45000000         55.60151073
         -2.44000000        115.91915873
         -2.43000000         45.54218876
         -2.42000000         40.37900589
         -2.41000000         48.30889302
         -2.40000000         67.25467814
         -2.39000000         68.53439208
         -2.38000000         60.55133010
         -2.37000000         56.38705435
         -2.36000000         59.47052747
         -2.35000000         66.77985190
         -2.34000000         53.25581253
         -2.33000000         46.33000968
         -2.32000000         18.39934744
         -2.31000000         12.71230389
         -2.30000000         65.54580332
         -2.29000000         53.29835782
         -2.28000000         41.39266287
         -2.27000000         21.96033062
         -2.26000000         23.40997163
         -2.25000000        103.58772284
         -2.24000000         39.07879971
         -2.23000000        111.34371368
         -2.22000000         66.30003541
         -2.21000000         21.57068455
         -2.20000000         17.48958831
         -2.19000000         76.07624372
         -2.18000000         69.02047035
         -2.17000000          0.00000000
         -2.16000000          2.70976358
         -2.15000000          8.71246635
         -2.14000000         19.13232536
         -2.13000000         98.88925897
         -2.12000000         66.44875467
         -2.11000000         85.43796352
         -2.10000000         52.21944446
         -2.09000000         24.43047180
         -2.08000000         11.70876103
         -2.07000000          2.73018147
         -2.06000000          9.99927873
         -2.05000000         31.54552900
         -2.04000000         37.03065790
         -2.03000000         58.85604611
         -2.02000000         67.21134260
         -2.01000000         45.85076327
         -2.00000000         29.16501538
         -1.99000000         38.51981079
         -1.98000000         32.06604034
         -1.97000000         64.93968950
         -1.96000000         31.42349481
         -1.95000000         27.91030109
         -1.94000000         24.39710737
         -1.93000000         26.77883899
         -1.92000000         16.14617635
         -1.91000000         14.71340770
         -1.90000000         38.10967707
         -1.89000000         32.82751639
         -1.88000000         27.54535571
         -1.87000000         29.95837399
         -1.86000000         24.94279458
         -1.85000000         53.60185813
         -1.84000000         42.81547215
         -1.83000000         31.94122334
         -1.82000000         23.65837349
         -1.81000000         19.76139383
         -1.80000000         35.16881686
         -1.79000000         35.13091005
         -1.78000000         40.62536146
         -1.77000000         38.78712390
         -1.76000000         47.47989201
         -1.75000000         33.40603265
         -1.74000000         27.39797584
         -1.73000000         30.64297147
         -1.72000000         34.78110196
         -1.71000000         38.91923246
         -1.70000000         33.27229180
         -1.69000000         22.05473168
         -1.68000000         13.49670057
         -1.67000000         21.63227856
         -1.66000000         30.72890125
         -1.65000000         43.14808754
         -1.64000000         75.64307522
         -1.63000000         25.12812634
         -1.62000000         11.36752660
         -1.61000000         34.92791569
         -1.60000000         26.36491492
         -1.59000000         21.70663737
         -1.58000000         26.59286376
         -1.57000000         33.73346133
         -1.56000000         29.33841302
         -1.55000000         14.69396842
         -1.54000000         46.37077107
         -1.53000000         78.68900125
         -1.52000000          0.00000000
         -1.51000000          0.00000000
         -1.50000000          0.00000000
         -1.49000000          0.00000000
         -1.48000000          0.00000000
         -1.47000000          0.40794377
         -1.46000000         15.91549689
         -1.45000000         68.94692560
         -1.44000000         67.41812933
         -1.43000000         45.79381186
         -1.42000000         57.01840489
         -1.41000000         25.01035680
         -1.40000000         28.60460621
         -1.39000000         30.88933531
         -1.38000000         27.69827310
         -1.37000000         24.50721089
         -1.36000000         21.51885182
         -1.35000000         26.71824898
         -1.34000000         36.72690880
         -1.33000000         14.88495960
         -1.32000000         18.66357214
         -1.31000000         69.98536488
         -1.30000000         27.63762621
         -1.29000000         37.55848039
         -1.28000000         53.61873934
         -1.27000000         33.18116562
         -1.26000000         32.36584490
         -1.25000000         39.68065813
         -1.24000000         61.83260250
         -1.23000000         31.74305960
         -1.22000000         29.50430284
         -1.21000000         37.36438740
         -1.20000000         43.97708469
         -1.19000000         34.71579418
         -1.18000000         41.96226286
         -1.17000000         37.17585394
         -1.16000000         36.14983635
         -1.15000000         36.06896230
         -1.14000000         40.91945028
         -1.13000000         36.89750686
         -1.12000000         32.87556344
         -1.11000000         29.53111404
         -1.10000000         50.14275044
         -1.09000000         24.90158870
         -1.08000000         11.43991015
         -1.07000000          0.00000000
         -1.06000000          1.67907184
         -1.05000000         91.53756789
         -1.04000000         41.47924675
         -1.03000000         56.02775193
         -1.02000000         96.48421970
         -1.01000000         49.72605140
         -1.00000000         54.01485311
         -0.99000000         53.72951740
         -0.98000000         59.43525533
         -0.97000000         62.53897122
         -0.96000000         58.97532068
         -0.95000000         66.99304909
         -0.94000000         59.97887524
         -0.93000000         71.73110938
         -0.92000000         95.37118450
         -0.91000000         95.69324073
         -0.90000000         87.51928912
         -0.89000000         74.98068106
         -0.88000000         64.20074571
         -0.87000000        101.31429777
         -0.86000000         86.67958876
         -0.85000000         99.45605893
         -0.84000000         66.70231899
         -0.83000000         58.32244109
         -0.82000000         48.07095633
         -0.81000000         44.77486294
         -0.80000000         38.20813986
         -0.79000000         33.60352466
         -0.78000000        276.20709706
         -0.77000000         24.40639964
         -0.76000000         32.17250553
         -0.75000000         39.93861142
         -0.74000000         53.68307030
         -0.73000000          2.94252393
         -0.72000000          2.18128316
         -0.71000000         17.79491432
         -0.70000000         29.52940394
         -0.69000000         58.43209913
         -0.68000000        232.15808769
         -0.67000000          5.30352332
         -0.66000000          7.34075737
         -0.65000000         12.95323581
         -0.64000000         19.37073161
         -0.63000000         32.63866307
         -0.62000000         48.03345753
         -0.61000000         36.67231638
         -0.60000000         25.31117524
         -0.59000000         13.95003409
         -0.58000000          0.00000000
         -0.57000000          0.00000000
         -0.56000000          0.11298922
         -0.55000000          2.16130052
         -0.54000000          4.38815190
         -0.53000000          7.02663297
         -0.52000000         23.04593200
         -0.51000000         49.90670598
         -0.50000000         20.68571430
         -0.49000000         18.00362485
         -0.48000000         23.37324379
         -0.47000000         31.03494255
         -0.46000000         16.75296614
         -0.45000000         14.93827654
         -0.44000000         13.12358695
         -0.43000000         13.01925636
         -0.42000000         12.77990174
         -0.41000000         12.54054712
         -0.40000000         13.70623454
         -0.39000000         15.51242939
         -0.38000000         15.18757632
         -0.37000000         15.05027961
         -0.36000000         15.00115116
         -0.35000000         14.97547889
         -0.34000000         15.64271653
         -0.33000000         16.30995417
         -0.32000000         15.86681480
         -0.31000000          4.43057289
         -0.30000000          0.00000000
         -0.29000000          0.00000000
         -0.28000000          0.00000000
         -0.27000000          0.00000000
         -0.26000000          0.00000000
         -0.25000000          0.00000000
         -0.24000000          0.00000000
         -0.23000000          0.00000000
         -0.22000000          0.00000000
         -0.21000000          0.00000000
         -0.20000000          0.00000000
         -0.19000000          0.00000000
         -0.18000000          0.00000000
         -0.17000000          0.00000000
         -0.16000000          0.00000000
         -0.15000000          0.00000000
         -0.14000000          0.00000000
         -0.13000000          0.00000000
         -0.12000000          0.00000000
         -0.11000000          0.00000000
         -0.10000000          0.00000000
         -0.09000000          0.00000000
         -0.08000000          0.00000000
         -0.07000000          0.00000000
         -0.06000000          0.00000000
         -0.05000000          0.00000000
         -0.04000000          0.00000000
         -0.03000000          0.00000000
         -0.02000000          0.00000000
         -0.01000000          0.00000000
          0.00000000          0.00000000
