# total density of states output by FHI-aims 
# The energy reference for this output is the vacuum level
#    Energy (eV)      DOS 
        -10.00000000         27.24432295
         -9.99000000         51.93046642
         -9.98000000         39.61545676
         -9.97000000         36.60831264
         -9.96000000         31.00203357
         -9.95000000         27.87962196
         -9.94000000         28.18073437
         -9.93000000         28.48184678
         -9.92000000         28.78295918
         -9.91000000         31.64012189
         -9.90000000         34.19690148
         -9.89000000         26.16899978
         -9.88000000         33.52758199
         -9.87000000         44.10043776
         -9.86000000         40.06921479
         -9.85000000         37.20709307
         -9.84000000         40.90024612
         -9.83000000         45.33471249
         -9.82000000         48.02311936
         -9.81000000         38.57018544
         -9.80000000         31.96657041
         -9.79000000         26.31702104
         -9.78000000         23.53113037
         -9.77000000         22.50089826
         -9.76000000         21.89693754
         -9.75000000         21.29297682
         -9.74000000         22.17684548
         -9.73000000         30.31437440
         -9.72000000         36.84675694
         -9.71000000         40.48403231
         -9.70000000         47.45743228
         -9.69000000         47.67373147
         -9.68000000         43.39242918
         -9.67000000         48.38387670
         -9.66000000         67.53456016
         -9.65000000         35.05501409
         -9.64000000         42.25583592
         -9.63000000         59.75690082
         -9.62000000         45.33195130
         -9.61000000         48.67847107
         -9.60000000        101.99044144
         -9.59000000         43.65365561
         -9.58000000         42.31809981
         -9.57000000         26.38953024
         -9.56000000         91.65182765
         -9.55000000         76.19886267
         -9.54000000         61.99885835
         -9.53000000         33.69125274
         -9.52000000         70.34679896
         -9.51000000        105.75190109
         -9.50000000         50.25467492
         -9.49000000         61.18727948
         -9.48000000         73.21328411
         -9.47000000         48.67076777
         -9.46000000         74.07319980
         -9.45000000         68.08995032
         -9.44000000         61.67522697
         -9.43000000        119.76693715
         -9.42000000         94.14382569
         -9.41000000         87.12830173
         -9.40000000         78.70483147
         -9.39000000         66.68208734
         -9.38000000         69.30457414
         -9.37000000         88.76453372
         -9.36000000         72.66057060
         -9.35000000         67.75538460
         -9.34000000         94.05852679
         -9.33000000         91.63565190
         -9.32000000         76.75004419
         -9.31000000         80.18037687
         -9.30000000         67.90422242
         -9.29000000         81.77254662
         -9.28000000         72.44976200
         -9.27000000         67.78760393
         -9.26000000         66.59378168
         -9.25000000         73.88242086
         -9.24000000         52.78004671
         -9.23000000         69.31450846
         -9.22000000         67.64067325
         -9.21000000         49.62377894
         -9.20000000         41.15973030
         -9.19000000         44.52118658
         -9.18000000        100.90144514
         -9.17000000         55.30271782
         -9.16000000         41.24837646
         -9.15000000         42.01354331
         -9.14000000         67.13832048
         -9.13000000         50.37189874
         -9.12000000         40.83252013
         -9.11000000         56.41871623
         -9.10000000         27.40823504
         -9.09000000         65.09786545
         -9.08000000         62.15131517
         -9.07000000         37.61174491
         -9.06000000        251.88704406
         -9.05000000        191.11560356
         -9.04000000         36.81476141
         -9.03000000         89.40753703
         -9.02000000         60.34041675
         -9.01000000         77.30944662
         -9.00000000         83.89948643
         -8.99000000         41.54576223
         -8.98000000         43.50829007
         -8.97000000         33.88964369
         -8.96000000         50.80997918
         -8.95000000         39.44136473
         -8.94000000         70.68879247
         -8.93000000         59.23564088
         -8.92000000         43.12384476
         -8.91000000         54.04282269
         -8.90000000         57.97310811
         -8.89000000         41.44251689
         -8.88000000         49.83791306
         -8.87000000         44.70287435
         -8.86000000         39.42400959
         -8.85000000         52.06828153
         -8.84000000         45.68953900
         -8.83000000         45.87220266
         -8.82000000         45.84523474
         -8.81000000         40.46392599
         -8.80000000         36.56864671
         -8.79000000         33.01444159
         -8.78000000         40.61576656
         -8.77000000         47.02017385
         -8.76000000         23.45588556
         -8.75000000         27.37627723
         -8.74000000         13.94273961
         -8.73000000         18.69637833
         -8.72000000         24.08940989
         -8.71000000         30.11382674
         -8.70000000         47.81269547
         -8.69000000         48.17412347
         -8.68000000         40.12257046
         -8.67000000         41.74794147
         -8.66000000         40.65021222
         -8.65000000         31.83929168
         -8.64000000         33.00095618
         -8.63000000         50.49151566
         -8.62000000         48.60123797
         -8.61000000         44.05554798
         -8.60000000         37.66449626
         -8.59000000         32.11769107
         -8.58000000         32.46462168
         -8.57000000         27.23019541
         -8.56000000         33.00267389
         -8.55000000         36.02820364
         -8.54000000         65.63989212
         -8.53000000         35.76991446
         -8.52000000         25.38299159
         -8.51000000         20.33630107
         -8.50000000         31.65128742
         -8.49000000         37.21979528
         -8.48000000         41.32973193
         -8.47000000         40.97776378
         -8.46000000         36.51838553
         -8.45000000         41.10554803
         -8.44000000         39.03035412
         -8.43000000         41.59173001
         -8.42000000         37.02233949
         -8.41000000         31.70702456
         -8.40000000         42.56964071
         -8.39000000         42.31570814
         -8.38000000         23.67800207
         -8.37000000         39.69505257
         -8.36000000         47.08758132
         -8.35000000         47.32135477
         -8.34000000         29.44556652
         -8.33000000         29.62451099
         -8.32000000         97.48746460
         -8.31000000         68.41402586
         -8.30000000         45.38479490
         -8.29000000         65.46755786
         -8.28000000         47.61283346
         -8.27000000         47.21729025
         -8.26000000        125.41316609
         -8.25000000         40.06042371
         -8.24000000         89.91883837
         -8.23000000         60.22236006
         -8.22000000         59.97126048
         -8.21000000         34.76260000
         -8.20000000         36.96520051
         -8.19000000         96.76754989
         -8.18000000         65.02161485
         -8.17000000         79.73711745
         -8.16000000         67.35276154
         -8.15000000         91.72433096
         -8.14000000         90.54073326
         -8.13000000        114.91507793
         -8.12000000         87.75212797
         -8.11000000         99.49257115
         -8.10000000         84.26746678
         -8.09000000         94.14904357
         -8.08000000         99.48337650
         -8.07000000         86.80768631
         -8.06000000        110.35805156
         -8.05000000         88.94016650
         -8.04000000         94.97611455
         -8.03000000         83.96376958
         -8.02000000         81.52916630
         -8.01000000         87.56564631
         -8.00000000         79.26806993
         -7.99000000         81.62002046
         -7.98000000         82.65174235
         -7.97000000         68.16703450
         -7.96000000         83.05815168
         -7.95000000         80.46002151
         -7.94000000         68.83181741
         -7.93000000         61.04533127
         -7.92000000         69.21864710
         -7.91000000         50.81648284
         -7.90000000         51.66159605
         -7.89000000         67.39539002
         -7.88000000         55.74784360
         -7.87000000         67.10330867
         -7.86000000         49.12154248
         -7.85000000         40.66706802
         -7.84000000         60.68663070
         -7.83000000         84.84745924
         -7.82000000         65.81073004
         -7.81000000         78.90915304
         -7.80000000         60.57600681
         -7.79000000         78.68752589
         -7.78000000         45.63470143
         -7.77000000         97.59173538
         -7.76000000        220.18755857
         -7.75000000         53.71838143
         -7.74000000         51.41865254
         -7.73000000         59.23933589
         -7.72000000         86.75041862
         -7.71000000         40.08993870
         -7.70000000        119.90124365
         -7.69000000         11.58031139
         -7.68000000        548.79700625
         -7.67000000         37.76624145
         -7.66000000         38.70849820
         -7.65000000         42.27458432
         -7.64000000         61.64584457
         -7.63000000         69.76191370
         -7.62000000         76.80124904
         -7.61000000         62.57078454
         -7.60000000         69.79232418
         -7.59000000         44.86785324
         -7.58000000         42.14454781
         -7.57000000         54.02149342
         -7.56000000         43.08416161
         -7.55000000         42.65126534
         -7.54000000        118.94839017
         -7.53000000         41.68818917
         -7.52000000         48.13288580
         -7.51000000         47.17789946
         -7.50000000         45.79953648
         -7.49000000         52.45526778
         -7.48000000         55.13934546
         -7.47000000         43.65557355
         -7.46000000         47.30276873
         -7.45000000         44.35497765
         -7.44000000         44.69955894
         -7.43000000         45.59871875
         -7.42000000         62.14586446
         -7.41000000         35.53530282
         -7.40000000         40.16583899
         -7.39000000         62.58871035
         -7.38000000         59.21433060
         -7.37000000         52.32718037
         -7.36000000         49.88365063
         -7.35000000         48.31495389
         -7.34000000         73.29536311
         -7.33000000         41.60329810
         -7.32000000         44.33285465
         -7.31000000         58.56607409
         -7.30000000         23.51554220
         -7.29000000         99.10133193
         -7.28000000         61.62614454
         -7.27000000         52.93604930
         -7.26000000         38.44592515
         -7.25000000         20.57537641
         -7.24000000         36.20973712
         -7.23000000         48.77697811
         -7.22000000         50.72471927
         -7.21000000         58.31289684
         -7.20000000         40.86808960
         -7.19000000         45.48861553
         -7.18000000         55.25784941
         -7.17000000         52.38286744
         -7.16000000         49.03183247
         -7.15000000         23.41501216
         -7.14000000         68.81311194
         -7.13000000         64.32744558
         -7.12000000         35.93576682
         -7.11000000         66.35688341
         -7.10000000         41.94914989
         -7.09000000         27.50644848
         -7.08000000         17.92795158
         -7.07000000         44.15168579
         -7.06000000         51.19374108
         -7.05000000         67.89628991
         -7.04000000         30.94811112
         -7.03000000         33.86278200
         -7.02000000         71.69866381
         -7.01000000         54.55287807
         -7.00000000         46.73448656
         -6.99000000         38.06127150
         -6.98000000         56.01290914
         -6.97000000         40.61767618
         -6.96000000          4.81373997
         -6.95000000          8.35506402
         -6.94000000         65.87828595
         -6.93000000         28.25601579
         -6.92000000         45.72007886
         -6.91000000         47.80577337
         -6.90000000         35.52240202
         -6.89000000         35.96443418
         -6.88000000         26.23784921
         -6.87000000         29.94033780
         -6.86000000         18.55768406
         -6.85000000         35.27557534
         -6.84000000         39.97940691
         -6.83000000        118.20484019
         -6.82000000         40.24399772
         -6.81000000         39.59310033
         -6.80000000         63.37079857
         -6.79000000         37.77837633
         -6.78000000         45.71431400
         -6.77000000         44.75256797
         -6.76000000         52.86280120
         -6.75000000         56.66474811
         -6.74000000         44.64663313
         -6.73000000         45.25200161
         -6.72000000         65.70764495
         -6.71000000         58.47907666
         -6.70000000         73.56372355
         -6.69000000         48.12155013
         -6.68000000         64.65340768
         -6.67000000         77.73586350
         -6.66000000         46.87540268
         -6.65000000         80.43120562
         -6.64000000         60.29058512
         -6.63000000         28.40175801
         -6.62000000         78.77323570
         -6.61000000         42.12014941
         -6.60000000         69.97789884
         -6.59000000         57.17318798
         -6.58000000         61.32965531
         -6.57000000         61.61716364
         -6.56000000         50.70456151
         -6.55000000         63.08832586
         -6.54000000        104.03566932
         -6.53000000         61.66852288
         -6.52000000         65.59623349
         -6.51000000         49.17892583
         -6.50000000         70.73523019
         -6.49000000         51.98478256
         -6.48000000         46.51306873
         -6.47000000         47.99643705
         -6.46000000         61.61634924
         -6.45000000         70.21360582
         -6.44000000         47.42542818
         -6.43000000         57.89658406
         -6.42000000         59.99624518
         -6.41000000         59.11824471
         -6.40000000         49.33010817
         -6.39000000         53.10093142
         -6.38000000         47.07284133
         -6.37000000         57.31528546
         -6.36000000        109.97775553
         -6.35000000         51.81314615
         -6.34000000         21.63234703
         -6.33000000         52.71961166
         -6.32000000         41.62234758
         -6.31000000        126.31051767
         -6.30000000         15.24937450
         -6.29000000         11.75109838
         -6.28000000         23.16672997
         -6.27000000        120.36533740
         -6.26000000          8.33613178
         -6.25000000         12.98636959
         -6.24000000         32.14996399
         -6.23000000         32.04823146
         -6.22000000         35.16483531
         -6.21000000         62.37757904
         -6.20000000         53.49413140
         -6.19000000         25.54577782
         -6.18000000         46.30129145
         -6.17000000         22.48275590
         -6.16000000         20.52520847
         -6.15000000         20.97092575
         -6.14000000         21.41664303
         -6.13000000         24.74437965
         -6.12000000         36.01153588
         -6.11000000         57.75611952
         -6.10000000         30.42149276
         -6.09000000         36.97955005
         -6.08000000         44.85746507
         -6.07000000         13.92411267
         -6.06000000          6.22264117
         -6.05000000          0.00000000
         -6.04000000         10.89176346
         -6.03000000         14.12424086
         -6.02000000         17.35671825
         -6.01000000         22.39110766
         -6.00000000         31.70378147
         -5.99000000         34.96824921
         -5.98000000         27.07310661
         -5.97000000         19.17796400
         -5.96000000         21.93234115
         -5.95000000          0.00000000
         -5.94000000          0.00000000
         -5.93000000          0.00000000
         -5.92000000          0.00000000
         -5.91000000          0.00000000
         -5.90000000          0.00000000
         -5.89000000          0.00000000
         -5.88000000         86.57041825
         -5.87000000         33.91988924
         -5.86000000         34.35775797
         -5.85000000         57.80421215
         -5.84000000          0.00000000
         -5.83000000          0.00000000
         -5.82000000          0.00000000
         -5.81000000          0.00000000
         -5.80000000          0.00000000
         -5.79000000          0.00000000
         -5.78000000          0.00000000
         -5.77000000          0.00000000
         -5.76000000         12.37291801
         -5.75000000         29.87698002
         -5.74000000         42.63721043
         -5.73000000         71.78480528
         -5.72000000         36.44862949
         -5.71000000         45.39893412
         -5.70000000         44.98511621
         -5.69000000         86.64751981
         -5.68000000         59.52295215
         -5.67000000          0.00000000
         -5.66000000          0.00000000
         -5.65000000          0.00000000
         -5.64000000          0.00000000
         -5.63000000          0.00000000
         -5.62000000          0.00000000
         -5.61000000          0.00000000
         -5.60000000          0.00000000
         -5.59000000          0.00000000
         -5.58000000          0.00000000
         -5.57000000          0.00000000
         -5.56000000          0.00000000
         -5.55000000          0.00000000
         -5.54000000          0.00000000
         -5.53000000          0.00000000
         -5.52000000          0.00000000
         -5.51000000          0.00000000
         -5.50000000          0.00000000
         -5.49000000          0.00000000
         -5.48000000          0.00000000
         -5.47000000          0.00000000
         -5.46000000          0.00000000
         -5.45000000          0.00000000
         -5.44000000          0.00000000
         -5.43000000          0.00000000
         -5.42000000          0.00000000
         -5.41000000          0.00000000
         -5.40000000          0.00000000
         -5.39000000          0.00000000
         -5.38000000          0.00000000
         -5.37000000          0.00000000
         -5.36000000          0.00000000
         -5.35000000          0.00000000
         -5.34000000          0.00000000
         -5.33000000          0.00000000
         -5.32000000          0.00000000
         -5.31000000          0.00000000
         -5.30000000          0.00000000
         -5.29000000          0.00000000
         -5.28000000          0.00000000
         -5.27000000          0.00000000
         -5.26000000          0.00000000
         -5.25000000          0.00000000
         -5.24000000          0.00000000
         -5.23000000          0.00000000
         -5.22000000          0.00000000
         -5.21000000          0.00000000
         -5.20000000          0.00000000
         -5.19000000          0.00000000
         -5.18000000          0.00000000
         -5.17000000          0.00000000
         -5.16000000          0.00000000
         -5.15000000         38.37203166
         -5.14000000         77.01680798
         -5.13000000         83.64969764
         -5.12000000          2.84613132
         -5.11000000          0.00000000
         -5.10000000          0.00000000
         -5.09000000          0.00000000
         -5.08000000          0.00000000
         -5.07000000          0.00000000
         -5.06000000          0.00000000
         -5.05000000          0.00000000
         -5.04000000          0.00000000
         -5.03000000          0.00000000
         -5.02000000          0.00000000
         -5.01000000          0.00000000
         -5.00000000          0.00000000
         -4.99000000          0.00000000
         -4.98000000          0.00000000
         -4.97000000          0.00000000
         -4.96000000          0.00000000
         -4.95000000          0.00000000
         -4.94000000          0.00000000
         -4.93000000          0.00000000
         -4.92000000          0.00000000
         -4.91000000          0.00000000
         -4.90000000          0.00000000
         -4.89000000          0.00000000
         -4.88000000          0.00000000
         -4.87000000          0.00000000
         -4.86000000          0.00000000
         -4.85000000          0.00000000
         -4.84000000          0.00000000
         -4.83000000          0.00000000
         -4.82000000          0.00000000
         -4.81000000          0.00000000
         -4.80000000          0.00000000
         -4.79000000          0.00000000
         -4.78000000          0.00000000
         -4.77000000          0.00000000
         -4.76000000          0.00000000
         -4.75000000          0.00000000
         -4.74000000          0.00000000
         -4.73000000          0.00000000
         -4.72000000          0.00000000
         -4.71000000          0.00000000
         -4.70000000          0.00000000
         -4.69000000          0.00000000
         -4.68000000          0.00000000
         -4.67000000          0.00000000
         -4.66000000          0.00000000
         -4.65000000          0.00000000
         -4.64000000          0.00000000
         -4.63000000          0.00000000
         -4.62000000          0.00000000
         -4.61000000        476.25987311
         -4.60000000          0.00000000
         -4.59000000          0.00000000
         -4.58000000          0.00000000
         -4.57000000          0.00000000
         -4.56000000          0.00000000
         -4.55000000          0.00000000
         -4.54000000          0.00000000
         -4.53000000          0.00000000
         -4.52000000          0.00000000
         -4.51000000          0.00000000
         -4.50000000          0.00000000
         -4.49000000          0.00000000
         -4.48000000          0.00000000
         -4.47000000          0.00000000
         -4.46000000          0.00000000
         -4.45000000          0.00000000
         -4.44000000          0.00000000
         -4.43000000          0.00000000
         -4.42000000          0.00000000
         -4.41000000          0.00000000
         -4.40000000          0.00000000
         -4.39000000          0.00000000
         -4.38000000          0.00000000
         -4.37000000          0.00000000
         -4.36000000          0.00000000
         -4.35000000         49.10255844
         -4.34000000        103.74423179
         -4.33000000         51.58158556
         -4.32000000          9.29328922
         -4.31000000          0.00000000
         -4.30000000          0.00000000
         -4.29000000          0.00000000
         -4.28000000          0.00000000
         -4.27000000          0.00000000
         -4.26000000          0.00000000
         -4.25000000          0.00000000
         -4.24000000          0.00000000
         -4.23000000          0.00000000
         -4.22000000          0.00000000
         -4.21000000          0.00000000
         -4.20000000          0.00000000
         -4.19000000          0.00000000
         -4.18000000          0.00000000
         -4.17000000          0.00000000
         -4.16000000          0.00000000
         -4.15000000         73.52665753
         -4.14000000          0.00000000
         -4.13000000         33.90303273
         -4.12000000         93.97331324
         -4.11000000         59.53498443
         -4.10000000         21.71638697
         -4.09000000          0.00000000
         -4.08000000          0.00000000
         -4.07000000          0.00000000
         -4.06000000          0.00000000
         -4.05000000          0.00000000
         -4.04000000          0.00000000
         -4.03000000          0.00000000
         -4.02000000          0.00000000
         -4.01000000          0.00000000
         -4.00000000          0.00000000
         -3.99000000          0.00000000
         -3.98000000          0.00000000
         -3.97000000          0.00000000
         -3.96000000          0.00000000
         -3.95000000          0.00000000
         -3.94000000          0.00000000
         -3.93000000          0.00000000
         -3.92000000          0.00000000
         -3.91000000          0.00000000
         -3.90000000          0.00000000
         -3.89000000          0.00000000
         -3.88000000          0.00000000
         -3.87000000          0.00000000
         -3.86000000          0.00000000
         -3.85000000          0.00000000
         -3.84000000          0.00000000
         -3.83000000          0.00000000
         -3.82000000          0.00000000
         -3.81000000          0.00000000
         -3.80000000          0.00000000
         -3.79000000          0.00000000
         -3.78000000          0.00000000
         -3.77000000         18.69935829
         -3.76000000        100.13115353
         -3.75000000         45.04099988
         -3.74000000         27.25517240
         -3.73000000          9.46934491
         -3.72000000          4.62348831
         -3.71000000          2.53259583
         -3.70000000          0.44170335
         -3.69000000        197.63981905
         -3.68000000          0.00000000
         -3.67000000         28.02928681
         -3.66000000         37.93577757
         -3.65000000         74.67981299
         -3.64000000         66.16081106
         -3.63000000         78.19988285
         -3.62000000        136.56245896
         -3.61000000         68.64217326
         -3.60000000         65.01247272
         -3.59000000         82.28990863
         -3.58000000        101.50172082
         -3.57000000         60.28472992
         -3.56000000         14.83560454
         -3.55000000        147.28773238
         -3.54000000         82.13017199
         -3.53000000        121.04269923
         -3.52000000         54.55272342
         -3.51000000         65.18433452
         -3.50000000        100.05296079
         -3.49000000         24.49355930
         -3.48000000         86.62780459
         -3.47000000         17.34436436
         -3.46000000        103.21756837
         -3.45000000         70.66822110
         -3.44000000        160.22889780
         -3.43000000         77.19758563
         -3.42000000         58.55297161
         -3.41000000         68.30032918
         -3.40000000         80.30177644
         -3.39000000         79.73904720
         -3.38000000         62.52065732
         -3.37000000        172.79932908
         -3.36000000         50.37236198
         -3.35000000         83.47796486
         -3.34000000         46.65533710
         -3.33000000         72.20810645
         -3.32000000         17.95570202
         -3.31000000         28.93555021
         -3.30000000         47.61081205
         -3.29000000         73.18186714
         -3.28000000         61.01410921
         -3.27000000         46.30612894
         -3.26000000         69.73665940
         -3.25000000         82.00999119
         -3.24000000         62.52622701
         -3.23000000         52.98657352
         -3.22000000         83.78952036
         -3.21000000         31.60443120
         -3.20000000         42.63918057
         -3.19000000         54.91672411
         -3.18000000         41.60469125
         -3.17000000         51.07242884
         -3.16000000        123.33277354
         -3.15000000         63.22577968
         -3.14000000        170.01726764
         -3.13000000         33.83573667
         -3.12000000          1.33486906
         -3.11000000        150.53890643
         -3.10000000        131.68674129
         -3.09000000         64.45723265
         -3.08000000         44.42424526
         -3.07000000         19.68112383
         -3.06000000         63.38717908
         -3.05000000         88.80238606
         -3.04000000         79.84261356
         -3.03000000        107.58739410
         -3.02000000         56.28577944
         -3.01000000         67.66060138
         -3.00000000         65.78249021
         -2.99000000         80.57136948
         -2.98000000         72.82797872
         -2.97000000         97.13050470
         -2.96000000         86.34397825
         -2.95000000         58.92199573
         -2.94000000         59.97006206
         -2.93000000         59.33290652
         -2.92000000         91.37341810
         -2.91000000         93.17340702
         -2.90000000        160.45553299
         -2.89000000        111.52849895
         -2.88000000         93.20921540
         -2.87000000         69.09925591
         -2.86000000         43.09943283
         -2.85000000         82.55244882
         -2.84000000        134.19519061
         -2.83000000        100.08191083
         -2.82000000         88.72873780
         -2.81000000         54.37020480
         -2.80000000         93.87261804
         -2.79000000        109.91592270
         -2.78000000         68.07479753
         -2.77000000        109.64745357
         -2.76000000        121.41184540
         -2.75000000         96.57192538
         -2.74000000         94.50899830
         -2.73000000         63.49061310
         -2.72000000         53.63128890
         -2.71000000         70.40367146
         -2.70000000         62.55310785
         -2.69000000         82.32068864
         -2.68000000         82.81063526
         -2.67000000         61.50096478
         -2.66000000         27.27564114
         -2.65000000        111.62400723
         -2.64000000         61.99467360
         -2.63000000         63.71774435
         -2.62000000         82.85690781
         -2.61000000         88.42883916
         -2.60000000         85.30972240
         -2.59000000         74.86788739
         -2.58000000         40.57475018
         -2.57000000         63.55152121
         -2.56000000         57.09365383
         -2.55000000         68.66465826
         -2.54000000         77.05269811
         -2.53000000         51.87037392
         -2.52000000         43.98763157
         -2.51000000        112.78423315
         -2.50000000        128.37984974
         -2.49000000        111.61867451
         -2.48000000         74.92029854
         -2.47000000         92.35369366
         -2.46000000         89.88728722
         -2.45000000         42.43220537
         -2.44000000         78.76986700
         -2.43000000         71.43106124
         -2.42000000         42.00018950
         -2.41000000         65.26471107
         -2.40000000         68.28166132
         -2.39000000         49.25569797
         -2.38000000         42.80788220
         -2.37000000         57.74113054
         -2.36000000         65.35255614
         -2.35000000         50.03395140
         -2.34000000         40.36951556
         -2.33000000         71.04686097
         -2.32000000         60.47574926
         -2.31000000         20.56554294
         -2.30000000         42.91770983
         -2.29000000         71.53852880
         -2.28000000         49.44313140
         -2.27000000         37.02148293
         -2.26000000         23.37945009
         -2.25000000        102.91572117
         -2.24000000         64.75682639
         -2.23000000         50.73793127
         -2.22000000         89.88462837
         -2.21000000         72.39436061
         -2.20000000          3.65078128
         -2.19000000         25.91145421
         -2.18000000         59.94272439
         -2.17000000         61.91363925
         -2.16000000          9.68022121
         -2.15000000          8.62659068
         -2.14000000         38.92889383
         -2.13000000        104.92810294
         -2.12000000         49.60958580
         -2.11000000         48.21362568
         -2.10000000         53.97404147
         -2.09000000         69.19000653
         -2.08000000         32.96511932
         -2.07000000         13.30189333
         -2.06000000          6.35423333
         -2.05000000         16.87841420
         -2.04000000         35.87482706
         -2.03000000         44.29328059
         -2.02000000         63.22290363
         -2.01000000         50.22972582
         -2.00000000         32.57372702
         -1.99000000         36.67306922
         -1.98000000         33.58518061
         -1.97000000         31.77978625
         -1.96000000         66.74167955
         -1.95000000         56.68289328
         -1.94000000         27.97705860
         -1.93000000         25.59828968
         -1.92000000         23.48156131
         -1.91000000         30.00908521
         -1.90000000         37.86506059
         -1.89000000         36.90980815
         -1.88000000         43.89250067
         -1.87000000         31.19436469
         -1.86000000         32.62196377
         -1.85000000         24.67411204
         -1.84000000         23.07719896
         -1.83000000         56.33163313
         -1.82000000         33.78424883
         -1.81000000         24.51768709
         -1.80000000         25.83802231
         -1.79000000         36.41659178
         -1.78000000         36.60779763
         -1.77000000         42.47923289
         -1.76000000         46.60791378
         -1.75000000         42.94619864
         -1.74000000         30.55053953
         -1.73000000         29.64622021
         -1.72000000         31.78834962
         -1.71000000         36.10812711
         -1.70000000         36.59387993
         -1.69000000         31.19256435
         -1.68000000         19.09863823
         -1.67000000         12.29011364
         -1.66000000         23.34744998
         -1.65000000         32.04257616
         -1.64000000         58.90362079
         -1.63000000         65.62202798
         -1.62000000         23.67065412
         -1.61000000         17.81276631
         -1.60000000         39.19466182
         -1.59000000         20.03647761
         -1.58000000         23.38215746
         -1.57000000         26.72783731
         -1.56000000         79.04266385
         -1.55000000         13.80829511
         -1.54000000         22.32821895
         -1.53000000         58.76940397
         -1.52000000        148.18659015
         -1.51000000          0.00000000
         -1.50000000          0.00000000
         -1.49000000          0.00000000
         -1.48000000          0.00000000
         -1.47000000          0.00000000
         -1.46000000          6.47856339
         -1.45000000         22.23012182
         -1.44000000         68.50372020
         -1.43000000         51.18141652
         -1.42000000         47.01333700
         -1.41000000         38.63166136
         -1.40000000         26.72515478
         -1.39000000         30.69168841
         -1.38000000         29.75829677
         -1.37000000         26.41312244
         -1.36000000         23.06794811
         -1.35000000         23.46249934
         -1.34000000         29.71329490
         -1.33000000         24.57873360
         -1.32000000         16.67890557
         -1.31000000         40.38485268
         -1.30000000         45.51502076
         -1.29000000         32.20282916
         -1.28000000         47.93847125
         -1.27000000         47.65798818
         -1.26000000         29.41088659
         -1.25000000         35.16587749
         -1.24000000         17.96536723
         -1.23000000         47.43538324
         -1.22000000         31.30227636
         -1.21000000         29.59506720
         -1.20000000         46.25874609
         -1.19000000         41.00881954
         -1.18000000         79.86142342
         -1.17000000         42.63179368
         -1.16000000         37.62253776
         -1.15000000         36.10256295
         -1.14000000         38.19979867
         -1.13000000         39.94493854
         -1.12000000         35.54726947
         -1.11000000         31.79083179
         -1.10000000         24.34295884
         -1.09000000         34.09815514
         -1.08000000         19.73347282
         -1.07000000          5.36879051
         -1.06000000          0.00000000
         -1.05000000         40.66336088
         -1.04000000         67.02144731
         -1.03000000         45.87341216
         -1.02000000         65.50487649
         -1.01000000         46.80433850
         -1.00000000         51.79160495
         -0.99000000         68.19720755
         -0.98000000         49.48134950
         -0.97000000         64.54651052
         -0.96000000         60.19757091
         -0.95000000         64.56897172
         -0.94000000         57.73087110
         -0.93000000         71.62939662
         -0.92000000         85.09321217
         -0.91000000         94.59362362
         -0.90000000         92.81956580
         -0.89000000         82.02551787
         -0.88000000         69.14498614
         -0.87000000         70.91652609
         -0.86000000         66.61959690
         -0.85000000         86.79090398
         -0.84000000         76.47210481
         -0.83000000         64.26087818
         -0.82000000         55.72780355
         -0.81000000         47.33279701
         -0.80000000         36.91203410
         -0.79000000         29.78075781
         -0.78000000         32.17588569
         -0.77000000         22.52956864
         -0.76000000         27.61025356
         -0.75000000         37.00623251
         -0.74000000         53.70669217
         -0.73000000         12.89518163
         -0.72000000          0.00000000
         -0.71000000         11.37491032
         -0.70000000         36.35223762
         -0.69000000         43.35585591
         -0.68000000         53.99065613
         -0.67000000         39.46831346
         -0.66000000          3.79277519
         -0.65000000          7.84378777
         -0.64000000         15.76153255
         -0.63000000         31.49995277
         -0.62000000         42.50525247
         -0.61000000         35.90804069
         -0.60000000         29.11281547
         -0.59000000         14.14463813
         -0.58000000          7.92145068
         -0.57000000          5.28426544
         -0.56000000          0.00000000
         -0.55000000          0.00000000
         -0.54000000          3.75628849
         -0.53000000         29.99200997
         -0.52000000         25.97613516
         -0.51000000         23.41460378
         -0.50000000         25.29296865
         -0.49000000         29.22361397
         -0.48000000         18.23774633
         -0.47000000         17.33725040
         -0.46000000         23.33351372
         -0.45000000         17.36083186
         -0.44000000         12.74754793
         -0.43000000          9.14766184
         -0.42000000          7.11534700
         -0.41000000          8.75558699
         -0.40000000         10.82276662
         -0.39000000         12.88994625
         -0.38000000         14.95712589
         -0.37000000         19.33118037
         -0.36000000         20.17508576
         -0.35000000         17.46647971
         -0.34000000         14.07121965
         -0.33000000         12.44305210
         -0.32000000         10.82021956
         -0.31000000         10.13638189
         -0.30000000          9.45254423
         -0.29000000          0.00000000
         -0.28000000          0.00000000
         -0.27000000          0.00000000
         -0.26000000          0.00000000
         -0.25000000          0.00000000
         -0.24000000          0.00000000
         -0.23000000          0.00000000
         -0.22000000          0.00000000
         -0.21000000          0.00000000
         -0.20000000          0.00000000
         -0.19000000          0.00000000
         -0.18000000          0.00000000
         -0.17000000          0.00000000
         -0.16000000          0.00000000
         -0.15000000          0.00000000
         -0.14000000          0.00000000
         -0.13000000          0.00000000
         -0.12000000          0.00000000
         -0.11000000          0.00000000
         -0.10000000          0.00000000
         -0.09000000          0.00000000
         -0.08000000          0.00000000
         -0.07000000          0.00000000
         -0.06000000          0.00000000
         -0.05000000          0.00000000
         -0.04000000          0.00000000
         -0.03000000          0.00000000
         -0.02000000          0.00000000
         -0.01000000          0.00000000
          0.00000000          0.00000000
