# total density of states output by FHI-aims 
# The energy reference for this output is the vacuum level
#    Energy (eV)      DOS 
        -10.00000000         43.56692257
         -9.99000000         44.11760313
         -9.98000000         42.88031076
         -9.97000000         39.44119251
         -9.96000000         40.00267187
         -9.95000000         40.56415123
         -9.94000000         27.30395869
         -9.93000000         24.74084767
         -9.92000000         24.76822601
         -9.91000000         30.44862755
         -9.90000000         40.21780462
         -9.89000000         55.76001303
         -9.88000000         38.59441449
         -9.87000000         42.03344375
         -9.86000000         38.78802932
         -9.85000000         38.79837924
         -9.84000000         38.34059988
         -9.83000000         36.71250704
         -9.82000000         33.95810940
         -9.81000000         31.20371176
         -9.80000000         28.62556816
         -9.79000000         38.88337621
         -9.78000000         22.99220118
         -9.77000000         21.30762410
         -9.76000000         19.62304702
         -9.75000000         17.93846993
         -9.74000000         74.94592072
         -9.73000000         31.56623823
         -9.72000000         39.56471731
         -9.71000000         35.42606302
         -9.70000000         32.40826945
         -9.69000000         30.13285559
         -9.68000000         28.00193813
         -9.67000000         25.45470100
         -9.66000000         23.47326104
         -9.65000000         24.66887490
         -9.64000000         25.86448876
         -9.63000000         27.06010262
         -9.62000000         33.47974932
         -9.61000000         28.21149472
         -9.60000000         25.28658566
         -9.59000000         34.12698871
         -9.58000000         44.31848060
         -9.57000000         61.46312534
         -9.56000000        110.44172102
         -9.55000000         21.93890751
         -9.54000000         45.12178172
         -9.53000000         49.91542132
         -9.52000000         88.32785967
         -9.51000000         17.92837676
         -9.50000000         55.01273859
         -9.49000000         42.52915732
         -9.48000000         89.79507274
         -9.47000000        118.30672996
         -9.46000000        102.08523794
         -9.45000000         41.32041999
         -9.44000000         61.05261331
         -9.43000000         57.80674003
         -9.42000000        186.87208130
         -9.41000000        132.68169789
         -9.40000000         60.86930639
         -9.39000000        129.84754916
         -9.38000000         49.99828689
         -9.37000000        113.97453242
         -9.36000000        104.88517216
         -9.35000000         81.47350944
         -9.34000000        112.01443513
         -9.33000000         57.37284844
         -9.32000000         65.71631911
         -9.31000000         59.03448946
         -9.30000000         72.94555053
         -9.29000000         47.65853256
         -9.28000000         47.93470774
         -9.27000000         53.05844616
         -9.26000000         57.37983805
         -9.25000000         49.26109837
         -9.24000000         39.95351107
         -9.23000000         51.94905972
         -9.22000000         60.74784689
         -9.21000000         42.13666148
         -9.20000000         67.60464329
         -9.19000000         50.19864105
         -9.18000000         26.41063452
         -9.17000000         61.63972924
         -9.16000000         51.34515651
         -9.15000000         61.90002890
         -9.14000000         50.48360589
         -9.13000000         44.25459394
         -9.12000000         28.50815526
         -9.11000000         35.40190855
         -9.10000000         43.04047463
         -9.09000000         44.75405231
         -9.08000000         44.04925496
         -9.07000000         19.66994215
         -9.06000000         50.54684221
         -9.05000000         82.37517703
         -9.04000000         94.60176326
         -9.03000000         50.61578535
         -9.02000000         39.45370684
         -9.01000000         46.29539215
         -9.00000000         48.93674555
         -8.99000000         51.19276889
         -8.98000000         39.16643021
         -8.97000000         51.41922655
         -8.96000000         68.32373905
         -8.95000000         38.37277737
         -8.94000000         59.23325720
         -8.93000000         54.95077121
         -8.92000000         43.16557225
         -8.91000000         22.13818199
         -8.90000000        333.15308435
         -8.89000000        120.91103726
         -8.88000000        242.58917838
         -8.87000000         26.94117465
         -8.86000000         28.90245341
         -8.85000000         32.55910434
         -8.84000000         37.38999175
         -8.83000000         39.66242741
         -8.82000000         41.57193544
         -8.81000000         44.19354608
         -8.80000000         45.85029212
         -8.79000000         45.14055000
         -8.78000000         40.13404590
         -8.77000000         39.41201199
         -8.76000000         38.68997807
         -8.75000000         37.96794415
         -8.74000000         33.47166944
         -8.73000000         37.48691165
         -8.72000000         35.64917320
         -8.71000000         46.65906417
         -8.70000000         33.83668908
         -8.69000000         36.62202009
         -8.68000000         38.28328779
         -8.67000000         27.33677717
         -8.66000000         39.20895590
         -8.65000000         91.06173277
         -8.64000000         10.03014342
         -8.63000000         12.23618911
         -8.62000000         50.49873966
         -8.61000000         26.88677449
         -8.60000000         33.70593481
         -8.59000000         46.94024060
         -8.58000000         37.63284874
         -8.57000000         31.88453758
         -8.56000000         32.68700252
         -8.55000000         31.40283044
         -8.54000000         28.59059543
         -8.53000000         21.93399505
         -8.52000000         23.56545683
         -8.51000000         26.30126444
         -8.50000000         51.16461321
         -8.49000000         46.89874250
         -8.48000000         63.22941706
         -8.47000000         54.84388197
         -8.46000000         44.65689284
         -8.45000000         32.39591028
         -8.44000000         32.53643299
         -8.43000000         34.14270923
         -8.42000000         35.74898546
         -8.41000000         34.61062322
         -8.40000000         53.76447798
         -8.39000000         49.14799785
         -8.38000000        213.10829526
         -8.37000000         22.69506798
         -8.36000000         21.24116471
         -8.35000000         43.02027709
         -8.34000000         31.71831377
         -8.33000000         22.64437958
         -8.32000000         53.19271990
         -8.31000000         43.09479151
         -8.30000000         57.73277381
         -8.29000000         59.12436713
         -8.28000000         56.03628515
         -8.27000000         72.15720698
         -8.26000000         63.62610374
         -8.25000000         72.68791890
         -8.24000000         28.78655894
         -8.23000000         10.97513299
         -8.22000000         79.72917831
         -8.21000000         65.73905987
         -8.20000000         72.80851252
         -8.19000000         22.62321428
         -8.18000000         31.64296355
         -8.17000000         49.77767499
         -8.16000000        193.19376860
         -8.15000000         62.77705509
         -8.14000000        104.46103440
         -8.13000000         46.55385861
         -8.12000000         38.75037030
         -8.11000000         84.70885856
         -8.10000000        133.37903009
         -8.09000000        110.13753301
         -8.08000000        102.59495818
         -8.07000000         92.12339198
         -8.06000000         90.54680546
         -8.05000000         98.28547246
         -8.04000000        125.21134545
         -8.03000000        113.69536696
         -8.02000000         99.03885764
         -8.01000000        101.87159782
         -8.00000000         99.04946464
         -7.99000000         87.36784593
         -7.98000000        110.21871481
         -7.97000000         72.54095298
         -7.96000000         78.27856450
         -7.95000000         83.01327111
         -7.94000000         77.33595469
         -7.93000000         50.18615884
         -7.92000000         87.04336911
         -7.91000000         62.61479685
         -7.90000000         52.93438549
         -7.89000000         75.81732985
         -7.88000000         64.20978224
         -7.87000000         62.18285127
         -7.86000000         84.67180657
         -7.85000000         58.14286625
         -7.84000000         78.95917348
         -7.83000000         46.45284240
         -7.82000000         70.65174713
         -7.81000000         69.32859864
         -7.80000000         85.24282169
         -7.79000000         49.09824834
         -7.78000000         94.67117298
         -7.77000000         56.56507998
         -7.76000000         70.44615817
         -7.75000000         76.19317631
         -7.74000000         89.92090502
         -7.73000000        114.47287584
         -7.72000000         44.14291503
         -7.71000000         45.41577773
         -7.70000000         51.92377405
         -7.69000000         80.63146693
         -7.68000000         68.35613044
         -7.67000000         67.33770685
         -7.66000000         84.35306999
         -7.65000000         49.82676460
         -7.64000000         55.90400884
         -7.63000000         55.96083679
         -7.62000000         55.42401207
         -7.61000000         61.49709111
         -7.60000000         58.13530585
         -7.59000000         56.75077372
         -7.58000000         58.27887404
         -7.57000000         62.06384741
         -7.56000000         50.49102031
         -7.55000000         49.39384181
         -7.54000000         48.96004900
         -7.53000000         62.79656564
         -7.52000000         56.82709505
         -7.51000000         42.97421243
         -7.50000000         47.74876121
         -7.49000000         35.61420287
         -7.48000000         37.49779390
         -7.47000000         39.69847271
         -7.46000000         53.14907386
         -7.45000000         71.88748721
         -7.44000000         48.21188395
         -7.43000000         40.25973129
         -7.42000000         41.38273982
         -7.41000000         47.22002253
         -7.40000000         57.04433014
         -7.39000000         54.95796919
         -7.38000000         62.73792387
         -7.37000000         64.25115699
         -7.36000000         53.45153999
         -7.35000000         47.34783831
         -7.34000000         40.65995260
         -7.33000000         34.37024672
         -7.32000000         32.89586852
         -7.31000000         54.56858800
         -7.30000000         53.79018099
         -7.29000000         46.23123861
         -7.28000000         40.86656196
         -7.27000000         30.23628994
         -7.26000000         44.25769089
         -7.25000000         40.57352242
         -7.24000000         80.62223164
         -7.23000000         60.52184838
         -7.22000000         63.75147602
         -7.21000000          1.93177118
         -7.20000000         32.93896222
         -7.19000000         94.54757841
         -7.18000000         43.85360547
         -7.17000000         22.81846327
         -7.16000000         39.30795597
         -7.15000000         49.61659258
         -7.14000000         59.92522919
         -7.13000000         12.00644863
         -7.12000000         37.20125212
         -7.11000000        111.26752741
         -7.10000000        247.90681021
         -7.09000000         11.28412320
         -7.08000000         24.64311271
         -7.07000000         59.31877401
         -7.06000000         69.53512395
         -7.05000000         58.02441327
         -7.04000000         46.37525962
         -7.03000000         55.86789814
         -7.02000000         72.67223648
         -7.01000000         79.42401871
         -7.00000000         51.73420648
         -6.99000000         34.37341961
         -6.98000000         32.51058226
         -6.97000000         47.45268789
         -6.96000000         12.56603468
         -6.95000000         22.08420153
         -6.94000000         31.60236837
         -6.93000000         41.12053522
         -6.92000000         26.37455970
         -6.91000000         17.33674468
         -6.90000000        102.78793210
         -6.89000000         62.90637567
         -6.88000000         41.30648184
         -6.87000000         42.55024324
         -6.86000000         44.65186240
         -6.85000000         75.58478561
         -6.84000000         71.27635334
         -6.83000000         56.60000974
         -6.82000000         55.48107564
         -6.81000000         53.53991088
         -6.80000000         87.04968499
         -6.79000000         50.02636614
         -6.78000000         34.46055245
         -6.77000000         88.00930026
         -6.76000000         62.80299436
         -6.75000000         84.38297611
         -6.74000000         86.67985921
         -6.73000000        138.55422654
         -6.72000000          7.65099763
         -6.71000000         70.55165547
         -6.70000000         97.64606922
         -6.69000000          0.00000000
         -6.68000000         67.73278629
         -6.67000000         78.45619356
         -6.66000000         88.68906194
         -6.65000000         99.14920032
         -6.64000000         71.09374646
         -6.63000000         54.64531056
         -6.62000000         49.43933842
         -6.61000000         95.46556650
         -6.60000000         39.93868859
         -6.59000000         57.54407752
         -6.58000000         37.39374595
         -6.57000000         41.76290734
         -6.56000000        102.14303572
         -6.55000000         60.73696412
         -6.54000000         57.61727775
         -6.53000000         70.90005520
         -6.52000000         64.31888443
         -6.51000000         44.68389912
         -6.50000000         48.11509628
         -6.49000000         80.68233428
         -6.48000000         55.16075606
         -6.47000000         63.49763774
         -6.46000000         59.34482680
         -6.45000000         52.00825434
         -6.44000000         43.95092556
         -6.43000000         53.17493984
         -6.42000000         59.51793566
         -6.41000000         58.00914475
         -6.40000000         66.43225517
         -6.39000000         38.71276091
         -6.38000000         36.05251471
         -6.37000000         61.34017869
         -6.36000000        101.63420222
         -6.35000000         72.44085300
         -6.34000000          6.82933336
         -6.33000000         98.54680143
         -6.32000000         65.13794388
         -6.31000000         44.21431142
         -6.30000000         25.11674934
         -6.29000000         20.58893760
         -6.28000000         19.97987401
         -6.27000000         27.45686437
         -6.26000000         39.18766116
         -6.25000000         51.96637595
         -6.24000000         36.85366099
         -6.23000000         27.71157327
         -6.22000000         31.72398102
         -6.21000000         36.49293835
         -6.20000000         41.26189567
         -6.19000000         46.03085300
         -6.18000000         53.45501097
         -6.17000000         94.49656185
         -6.16000000         20.36397740
         -6.15000000         11.71008807
         -6.14000000          4.19341190
         -6.13000000          0.00000000
         -6.12000000         16.06880311
         -6.11000000         27.18998309
         -6.10000000         30.59675414
         -6.09000000         31.49898412
         -6.08000000         28.48081510
         -6.07000000         22.08362893
         -6.06000000         57.55797871
         -6.05000000         24.46516977
         -6.04000000         15.89696103
         -6.03000000         14.59261104
         -6.02000000         17.06076530
         -6.01000000         24.80085507
         -6.00000000         33.97226585
         -5.99000000         43.14367663
         -5.98000000         13.85428716
         -5.97000000          8.50725959
         -5.96000000         52.86142587
         -5.95000000         39.70556011
         -5.94000000         57.04171338
         -5.93000000         85.17006988
         -5.92000000         15.15300989
         -5.91000000         34.71154731
         -5.90000000         30.40358114
         -5.89000000         26.09561496
         -5.88000000         21.78764878
         -5.87000000         17.47968261
         -5.86000000         13.17171643
         -5.85000000          0.00000000
         -5.84000000          0.00000000
         -5.83000000          0.00000000
         -5.82000000          0.00000000
         -5.81000000          0.00000000
         -5.80000000          0.00000000
         -5.79000000          0.00000000
         -5.78000000          0.00000000
         -5.77000000          0.00000000
         -5.76000000          0.00000000
         -5.75000000          0.00000000
         -5.74000000          0.00000000
         -5.73000000          0.00000000
         -5.72000000          0.00000000
         -5.71000000          0.00000000
         -5.70000000          0.00000000
         -5.69000000          0.00000000
         -5.68000000          0.00000000
         -5.67000000          0.00000000
         -5.66000000          0.00000000
         -5.65000000          0.00000000
         -5.64000000          0.00000000
         -5.63000000          0.00000000
         -5.62000000          0.00000000
         -5.61000000          0.00000000
         -5.60000000          0.00000000
         -5.59000000          0.00000000
         -5.58000000          0.00000000
         -5.57000000          0.00000000
         -5.56000000          0.00000000
         -5.55000000          0.00000000
         -5.54000000          0.00000000
         -5.53000000          0.00000000
         -5.52000000          0.00000000
         -5.51000000          0.00000000
         -5.50000000          0.00000000
         -5.49000000          0.00000000
         -5.48000000          0.00000000
         -5.47000000          0.00000000
         -5.46000000          0.00000000
         -5.45000000          0.00000000
         -5.44000000          0.00000000
         -5.43000000          0.00000000
         -5.42000000          0.00000000
         -5.41000000          0.00000000
         -5.40000000          0.00000000
         -5.39000000          0.00000000
         -5.38000000          0.00000000
         -5.37000000          0.00000000
         -5.36000000          0.00000000
         -5.35000000          0.00000000
         -5.34000000          0.00000000
         -5.33000000          0.00000000
         -5.32000000          0.00000000
         -5.31000000          0.00000000
         -5.30000000          0.00000000
         -5.29000000          0.00000000
         -5.28000000          0.00000000
         -5.27000000          0.00000000
         -5.26000000          0.00000000
         -5.25000000          0.00000000
         -5.24000000          0.00000000
         -5.23000000          0.00000000
         -5.22000000          0.00000000
         -5.21000000          0.00000000
         -5.20000000          0.00000000
         -5.19000000          0.00000000
         -5.18000000          0.00000000
         -5.17000000          0.00000000
         -5.16000000          0.00000000
         -5.15000000          0.00000000
         -5.14000000          0.00000000
         -5.13000000          0.00000000
         -5.12000000          0.00000000
         -5.11000000          0.00000000
         -5.10000000          0.00000000
         -5.09000000          0.00000000
         -5.08000000          0.00000000
         -5.07000000          0.00000000
         -5.06000000          0.00000000
         -5.05000000          0.00000000
         -5.04000000          0.00000000
         -5.03000000          0.00000000
         -5.02000000          0.00000000
         -5.01000000          0.00000000
         -5.00000000          0.00000000
         -4.99000000          0.00000000
         -4.98000000          0.00000000
         -4.97000000          0.00000000
         -4.96000000          0.00000000
         -4.95000000          0.00000000
         -4.94000000          0.00000000
         -4.93000000          0.00000000
         -4.92000000          0.00000000
         -4.91000000          0.00000000
         -4.90000000          0.00000000
         -4.89000000          0.00000000
         -4.88000000          0.00000000
         -4.87000000          0.00000000
         -4.86000000          0.00000000
         -4.85000000          0.00000000
         -4.84000000          0.00000000
         -4.83000000          0.00000000
         -4.82000000          0.00000000
         -4.81000000          0.00000000
         -4.80000000          0.00000000
         -4.79000000          0.00000000
         -4.78000000          0.00000000
         -4.77000000          0.00000000
         -4.76000000          0.00000000
         -4.75000000          0.00000000
         -4.74000000          0.00000000
         -4.73000000          0.00000000
         -4.72000000          0.00000000
         -4.71000000          0.00000000
         -4.70000000          0.00000000
         -4.69000000          0.00000000
         -4.68000000          0.00000000
         -4.67000000          0.00000000
         -4.66000000          0.00000000
         -4.65000000          0.00000000
         -4.64000000          0.00000000
         -4.63000000          0.00000000
         -4.62000000          0.00000000
         -4.61000000          0.00000000
         -4.60000000          0.00000000
         -4.59000000          0.00000000
         -4.58000000          0.00000000
         -4.57000000          0.00000000
         -4.56000000          0.00000000
         -4.55000000          0.00000000
         -4.54000000          0.00000000
         -4.53000000          0.00000000
         -4.52000000          0.00000000
         -4.51000000        193.26921758
         -4.50000000          0.00000000
         -4.49000000          0.00000000
         -4.48000000          0.00000000
         -4.47000000        110.94162037
         -4.46000000          0.00000000
         -4.45000000          0.00000000
         -4.44000000          0.00000000
         -4.43000000          0.00000000
         -4.42000000          0.00000000
         -4.41000000          0.00000000
         -4.40000000          0.00000000
         -4.39000000          0.00000000
         -4.38000000          0.00000000
         -4.37000000          0.00000000
         -4.36000000          0.00000000
         -4.35000000          0.00000000
         -4.34000000          0.00000000
         -4.33000000          0.00000000
         -4.32000000          0.00000000
         -4.31000000          0.00000000
         -4.30000000          0.00000000
         -4.29000000          0.00000000
         -4.28000000          0.00000000
         -4.27000000          0.00000000
         -4.26000000          0.00000000
         -4.25000000          0.00000000
         -4.24000000          0.00000000
         -4.23000000          0.00000000
         -4.22000000          0.00000000
         -4.21000000          0.00000000
         -4.20000000          0.00000000
         -4.19000000          0.00000000
         -4.18000000          0.00000000
         -4.17000000          0.00000000
         -4.16000000          0.00000000
         -4.15000000          0.00000000
         -4.14000000          0.00000000
         -4.13000000         71.73463712
         -4.12000000         59.39515112
         -4.11000000          0.00000000
         -4.10000000          0.00000000
         -4.09000000          0.00000000
         -4.08000000          0.00000000
         -4.07000000          0.00000000
         -4.06000000          0.00000000
         -4.05000000          0.00000000
         -4.04000000          0.00000000
         -4.03000000          0.00000000
         -4.02000000          0.00000000
         -4.01000000          0.00000000
         -4.00000000          0.00000000
         -3.99000000          0.00000000
         -3.98000000          0.00000000
         -3.97000000          4.33095443
         -3.96000000         20.19768557
         -3.95000000         34.83800659
         -3.94000000         40.66494032
         -3.93000000         39.34146116
         -3.92000000         39.26714973
         -3.91000000         22.05775190
         -3.90000000          0.00000000
         -3.89000000          0.00000000
         -3.88000000          0.00000000
         -3.87000000          0.00000000
         -3.86000000         18.24457866
         -3.85000000         17.62255625
         -3.84000000         17.16328157
         -3.83000000         17.06421935
         -3.82000000         16.96515712
         -3.81000000         16.52024285
         -3.80000000         15.64842283
         -3.79000000         14.45058823
         -3.78000000         12.91602060
         -3.77000000         12.08336034
         -3.76000000         11.25070008
         -3.75000000         15.13049434
         -3.74000000         20.83246163
         -3.73000000         25.48876657
         -3.72000000         33.76375954
         -3.71000000         43.59719016
         -3.70000000         25.83394470
         -3.69000000         17.39975356
         -3.68000000         46.67204306
         -3.67000000         47.76336961
         -3.66000000         62.61681892
         -3.65000000         39.07134505
         -3.64000000         38.99844412
         -3.63000000         56.81715901
         -3.62000000         68.01708613
         -3.61000000         75.53922230
         -3.60000000        132.20434817
         -3.59000000         83.91044482
         -3.58000000        120.30003306
         -3.57000000         82.64883199
         -3.56000000        101.53220007
         -3.55000000         75.85902861
         -3.54000000        193.57424191
         -3.53000000        104.20347946
         -3.52000000         55.82478060
         -3.51000000         84.28555515
         -3.50000000         95.16826293
         -3.49000000         18.29979857
         -3.48000000         47.73512387
         -3.47000000        179.05725901
         -3.46000000         83.34812266
         -3.45000000         21.61261798
         -3.44000000         47.12492262
         -3.43000000        159.02124356
         -3.42000000         50.57971597
         -3.41000000         72.13205496
         -3.40000000         75.84210334
         -3.39000000         48.13528865
         -3.38000000         91.62225867
         -3.37000000         65.56461363
         -3.36000000         60.64317333
         -3.35000000         44.81007755
         -3.34000000        107.94605902
         -3.33000000         70.56811634
         -3.32000000         67.33849362
         -3.31000000         69.20366446
         -3.30000000         64.66651325
         -3.29000000         30.83277898
         -3.28000000         40.98906858
         -3.27000000        145.29958656
         -3.26000000         20.05445520
         -3.25000000         72.89933602
         -3.24000000         46.36033595
         -3.23000000         75.82442231
         -3.22000000         36.09839228
         -3.21000000         52.23716191
         -3.20000000         45.83492496
         -3.19000000         13.19153685
         -3.18000000         45.86712062
         -3.17000000         48.22873140
         -3.16000000         38.59030362
         -3.15000000         32.38842747
         -3.14000000         30.86100097
         -3.13000000         53.41606942
         -3.12000000         56.39554251
         -3.11000000         58.19131108
         -3.10000000         59.50657479
         -3.09000000         60.76463971
         -3.08000000         55.17992436
         -3.07000000         58.31347022
         -3.06000000         60.77304379
         -3.05000000         61.13852747
         -3.04000000        141.33792813
         -3.03000000         69.83000967
         -3.02000000         79.81734547
         -3.01000000         99.27423490
         -3.00000000         59.98201646
         -2.99000000         87.58112746
         -2.98000000        157.73602086
         -2.97000000        123.46714854
         -2.96000000         84.83767228
         -2.95000000         90.78574076
         -2.94000000         95.82714995
         -2.93000000         92.57642230
         -2.92000000         92.60475428
         -2.91000000        139.02492412
         -2.90000000         98.09256032
         -2.89000000         77.36304845
         -2.88000000        190.18541988
         -2.87000000         89.47562214
         -2.86000000         90.49353844
         -2.85000000         52.79749487
         -2.84000000         88.17610931
         -2.83000000         81.74171768
         -2.82000000        115.00974838
         -2.81000000        101.41152816
         -2.80000000         68.00730488
         -2.79000000        101.33046863
         -2.78000000         43.91664995
         -2.77000000         91.32110506
         -2.76000000         81.71862621
         -2.75000000         87.71364588
         -2.74000000        142.06870453
         -2.73000000         95.38069145
         -2.72000000         86.10290054
         -2.71000000         74.84076611
         -2.70000000         56.77260444
         -2.69000000         71.03744241
         -2.68000000        130.05702146
         -2.67000000         60.57438401
         -2.66000000        107.89930178
         -2.65000000         79.90766180
         -2.64000000        305.64271761
         -2.63000000         69.65645431
         -2.62000000         36.18640047
         -2.61000000         70.17282046
         -2.60000000         34.96178818
         -2.59000000         42.51853335
         -2.58000000         70.59532696
         -2.57000000         87.07151093
         -2.56000000         69.14911377
         -2.55000000         81.78740691
         -2.54000000         65.20375600
         -2.53000000        143.58296459
         -2.52000000         42.84130019
         -2.51000000         70.40893798
         -2.50000000        115.85808385
         -2.49000000         61.43883045
         -2.48000000         87.99590008
         -2.47000000         68.96635097
         -2.46000000         64.46541593
         -2.45000000        121.36015449
         -2.44000000        116.60518813
         -2.43000000         54.13095858
         -2.42000000         94.58452505
         -2.41000000         42.86858085
         -2.40000000         51.09740791
         -2.39000000         49.27895283
         -2.38000000         60.49616594
         -2.37000000         60.88199579
         -2.36000000         63.09724987
         -2.35000000         61.40640166
         -2.34000000         43.16613497
         -2.33000000         57.78113797
         -2.32000000         58.37908164
         -2.31000000         23.32763445
         -2.30000000         20.32999720
         -2.29000000         20.11931324
         -2.28000000         64.96082251
         -2.27000000         69.15385732
         -2.26000000         50.61622400
         -2.25000000         24.89248449
         -2.24000000         52.14178081
         -2.23000000         74.50183645
         -2.22000000         94.15282561
         -2.21000000        101.08174626
         -2.20000000         60.35428052
         -2.19000000         47.98943676
         -2.18000000         30.24549742
         -2.17000000        102.05036667
         -2.16000000         23.58777560
         -2.15000000          2.24993008
         -2.14000000          2.67047466
         -2.13000000          3.09101924
         -2.12000000         73.47521155
         -2.11000000         31.24793403
         -2.10000000         27.83453029
         -2.09000000         42.69838618
         -2.08000000         42.20912711
         -2.07000000         38.78959327
         -2.06000000         44.54715121
         -2.05000000         58.22614544
         -2.04000000         70.42754457
         -2.03000000         37.99423677
         -2.02000000         45.80272802
         -2.01000000        213.54936066
         -2.00000000        324.60689067
         -1.99000000          0.00000000
         -1.98000000          8.15795204
         -1.97000000         21.90098503
         -1.96000000         34.49052503
         -1.95000000         47.81064407
         -1.94000000         36.59928708
         -1.93000000         25.38793008
         -1.92000000         51.64830705
         -1.91000000         27.59531970
         -1.90000000         32.06332814
         -1.89000000         28.04492949
         -1.88000000         23.17885914
         -1.87000000         24.16703841
         -1.86000000         21.72677574
         -1.85000000         26.77767222
         -1.84000000         19.04335161
         -1.83000000         18.38790839
         -1.82000000         18.54104524
         -1.81000000         18.69418209
         -1.80000000         18.84731894
         -1.79000000         30.73499679
         -1.78000000         34.98472870
         -1.77000000         39.11173637
         -1.76000000         39.62562135
         -1.75000000         41.78902873
         -1.74000000         46.29566839
         -1.73000000         40.98525390
         -1.72000000         36.16286613
         -1.71000000         40.06470509
         -1.70000000         38.22080008
         -1.69000000         28.91209138
         -1.68000000         20.08800572
         -1.67000000         14.34366551
         -1.66000000          9.29625236
         -1.65000000         21.01732086
         -1.64000000         28.81065250
         -1.63000000         37.39818972
         -1.62000000         82.13523244
         -1.61000000         61.05768770
         -1.60000000        102.48982160
         -1.59000000         42.45297021
         -1.58000000         38.83307045
         -1.57000000          4.47637167
         -1.56000000          5.83011656
         -1.55000000         11.58293564
         -1.54000000         18.62211104
         -1.53000000         84.90293711
         -1.52000000         28.63780997
         -1.51000000         54.95131875
         -1.50000000         59.50096366
         -1.49000000         49.56911626
         -1.48000000         33.76704586
         -1.47000000         19.57836744
         -1.46000000         21.74146772
         -1.45000000         26.08328801
         -1.44000000         30.42510830
         -1.43000000         31.95997640
         -1.42000000         22.87047325
         -1.41000000         22.06470834
         -1.40000000         21.25894343
         -1.39000000         20.45317852
         -1.38000000         19.64741361
         -1.37000000         18.35265373
         -1.36000000         19.81964993
         -1.35000000         28.63459961
         -1.34000000         17.21613170
         -1.33000000         19.61405400
         -1.32000000         23.48809395
         -1.31000000         24.37661773
         -1.30000000         25.26514152
         -1.29000000         33.51567047
         -1.28000000        139.66661895
         -1.27000000         40.34827657
         -1.26000000         33.13522109
         -1.25000000         49.34251927
         -1.24000000         49.35594635
         -1.23000000         45.66825194
         -1.22000000         56.21728083
         -1.21000000         90.44315976
         -1.20000000         36.27017434
         -1.19000000         17.29685949
         -1.18000000         19.01012870
         -1.17000000         20.72339791
         -1.16000000         34.39302672
         -1.15000000         95.35698642
         -1.14000000         25.06613366
         -1.13000000         21.57076217
         -1.12000000         18.12044725
         -1.11000000         19.50028681
         -1.10000000         32.24191060
         -1.09000000        104.20799248
         -1.08000000         53.34700987
         -1.07000000        190.66129699
         -1.06000000          2.85741067
         -1.05000000         40.60405750
         -1.04000000         21.78929600
         -1.03000000         31.55261839
         -1.02000000         42.46977340
         -1.01000000         28.19551050
         -1.00000000         31.06626585
         -0.99000000         35.96000056
         -0.98000000         45.46126071
         -0.97000000         54.96252086
         -0.96000000         69.95222394
         -0.95000000         58.70237322
         -0.94000000         44.98551108
         -0.93000000         72.83111028
         -0.92000000         65.45280800
         -0.91000000        122.20476488
         -0.90000000         85.00730619
         -0.89000000         76.64751541
         -0.88000000        108.01002938
         -0.87000000         96.20684974
         -0.86000000         74.13654299
         -0.85000000        151.48873493
         -0.84000000         86.53122106
         -0.83000000         83.90612465
         -0.82000000         60.20368071
         -0.81000000         44.41737431
         -0.80000000         37.24677290
         -0.79000000         29.45574630
         -0.78000000         23.23782713
         -0.77000000         17.71715630
         -0.76000000         64.71236049
         -0.75000000         21.29957406
         -0.74000000         25.81571685
         -0.73000000         40.34073708
         -0.72000000         46.96366168
         -0.71000000         24.50900824
         -0.70000000         15.10430959
         -0.69000000          9.84906501
         -0.68000000         20.77360967
         -0.67000000         68.60843179
         -0.66000000         37.73325770
         -0.65000000         25.30298667
         -0.64000000         19.89216374
         -0.63000000         15.79978055
         -0.62000000         15.67445238
         -0.61000000         15.65351561
         -0.60000000          4.60827532
         -0.59000000          6.15871115
         -0.58000000          7.70914699
         -0.57000000          9.25958283
         -0.56000000         10.81001867
         -0.55000000         12.36045451
         -0.54000000         54.81046096
         -0.53000000         37.51270797
         -0.52000000         26.52921051
         -0.51000000         18.65810407
         -0.50000000         14.52153788
         -0.49000000         13.87366483
         -0.48000000         16.43384466
         -0.47000000         17.39574173
         -0.46000000         16.73559265
         -0.45000000         16.21581574
         -0.44000000         15.55113921
         -0.43000000         14.88613405
         -0.42000000         14.22112889
         -0.41000000         13.62831844
         -0.40000000          7.93274428
         -0.39000000          2.23717011
         -0.38000000          0.00000000
         -0.37000000          0.00000000
         -0.36000000          0.00000000
         -0.35000000          0.00000000
         -0.34000000          0.00000000
         -0.33000000          0.00000000
         -0.32000000          0.00000000
         -0.31000000          0.00000000
         -0.30000000          0.00000000
         -0.29000000          0.00000000
         -0.28000000          0.00000000
         -0.27000000          0.00000000
         -0.26000000          0.00000000
         -0.25000000          0.00000000
         -0.24000000          0.00000000
         -0.23000000          0.00000000
         -0.22000000          0.00000000
         -0.21000000          0.00000000
         -0.20000000          0.00000000
         -0.19000000          0.00000000
         -0.18000000          0.00000000
         -0.17000000          0.00000000
         -0.16000000          0.00000000
         -0.15000000          0.00000000
         -0.14000000          0.00000000
         -0.13000000          0.00000000
         -0.12000000          0.00000000
         -0.11000000          0.00000000
         -0.10000000          0.00000000
         -0.09000000          0.00000000
         -0.08000000          0.00000000
         -0.07000000          0.00000000
         -0.06000000          0.00000000
         -0.05000000          0.00000000
         -0.04000000          0.00000000
         -0.03000000          0.00000000
         -0.02000000          0.00000000
         -0.01000000          0.00000000
          0.00000000          0.00000000
