#  E (eV)   dos(E)     Int dos(E) EFermi =    0.000 eV
 -10.000  0.7808E-82  0.7808E-84
  -9.990  0.7808E-82  0.1562E-83
  -9.980  0.7808E-82  0.2342E-83
  -9.970  0.7808E-82  0.3123E-83
  -9.960  0.7808E-82  0.3904E-83
  -9.950  0.7808E-82  0.4685E-83
  -9.940  0.7808E-82  0.5465E-83
  -9.930  0.7808E-82  0.6246E-83
  -9.920  0.7808E-82  0.7027E-83
  -9.910  0.7808E-82  0.7808E-83
  -9.900  0.7808E-82  0.8589E-83
  -9.890  0.7808E-82  0.9369E-83
  -9.880  0.7808E-82  0.1015E-82
  -9.870  0.7808E-82  0.1093E-82
  -9.860  0.7808E-82  0.1171E-82
  -9.850  0.7808E-82  0.1249E-82
  -9.840  0.7808E-82  0.1327E-82
  -9.830  0.7808E-82  0.1405E-82
  -9.820  0.7808E-82  0.1483E-82
  -9.810  0.7808E-82  0.1562E-82
  -9.800  0.7808E-82  0.1640E-82
  -9.790  0.7808E-82  0.1718E-82
  -9.780  0.7808E-82  0.1796E-82
  -9.770  0.7808E-82  0.1874E-82
  -9.760  0.7808E-82  0.1952E-82
  -9.750  0.7808E-82  0.2030E-82
  -9.740  0.7808E-82  0.2108E-82
  -9.730  0.7808E-82  0.2186E-82
  -9.720  0.7808E-82  0.2264E-82
  -9.710  0.7808E-82  0.2342E-82
  -9.700  0.7808E-82  0.2420E-82
  -9.690  0.7808E-82  0.2498E-82
  -9.680  0.7808E-82  0.2577E-82
  -9.670  0.7808E-82  0.2655E-82
  -9.660  0.7808E-82  0.2733E-82
  -9.650  0.7808E-82  0.2811E-82
  -9.640  0.7808E-82  0.2889E-82
  -9.630  0.7808E-82  0.2967E-82
  -9.620  0.7808E-82  0.3045E-82
  -9.610  0.7808E-82  0.3123E-82
  -9.600  0.7808E-82  0.3201E-82
  -9.590  0.7808E-82  0.3279E-82
  -9.580  0.7808E-82  0.3357E-82
  -9.570  0.7808E-82  0.3435E-82
  -9.560  0.7808E-82  0.3514E-82
  -9.550  0.7808E-82  0.3592E-82
  -9.540  0.7808E-82  0.3670E-82
  -9.530  0.7808E-82  0.3748E-82
  -9.520  0.7808E-82  0.3826E-82
  -9.510  0.7808E-82  0.3904E-82
  -9.500  0.7808E-82  0.3982E-82
  -9.490  0.7808E-82  0.4060E-82
  -9.480  0.7808E-82  0.4138E-82
  -9.470  0.7808E-82  0.4216E-82
  -9.460  0.7808E-82  0.4294E-82
  -9.450  0.7808E-82  0.4372E-82
  -9.440  0.7808E-82  0.4450E-82
  -9.430  0.7808E-82  0.4529E-82
  -9.420  0.7808E-82  0.4607E-82
  -9.410  0.7808E-82  0.4685E-82
  -9.400  0.7808E-82  0.4763E-82
  -9.390  0.7808E-82  0.4841E-82
  -9.380  0.7808E-82  0.4919E-82
  -9.370  0.7808E-82  0.4997E-82
  -9.360  0.7808E-82  0.5075E-82
  -9.350  0.7808E-82  0.5153E-82
  -9.340  0.7808E-82  0.5231E-82
  -9.330  0.7808E-82  0.5309E-82
  -9.320  0.7808E-82  0.5387E-82
  -9.310  0.7808E-82  0.5465E-82
  -9.300  0.7808E-82  0.5544E-82
  -9.290  0.7808E-82  0.5622E-82
  -9.280  0.7808E-82  0.5700E-82
  -9.270  0.7808E-82  0.5778E-82
  -9.260  0.7808E-82  0.5856E-82
  -9.250  0.7808E-82  0.5934E-82
  -9.240  0.7808E-82  0.6012E-82
  -9.230  0.7808E-82  0.6090E-82
  -9.220  0.7808E-82  0.6168E-82
  -9.210  0.7808E-82  0.6246E-82
  -9.200  0.7808E-82  0.6324E-82
  -9.190  0.7808E-82  0.6402E-82
  -9.180  0.7808E-82  0.6480E-82
  -9.170  0.7808E-82  0.6559E-82
  -9.160  0.7808E-82  0.6637E-82
  -9.150  0.7808E-82  0.6715E-82
  -9.140  0.7808E-82  0.6793E-82
  -9.130  0.7808E-82  0.6871E-82
  -9.120  0.7808E-82  0.6949E-82
  -9.110  0.7808E-82  0.7027E-82
  -9.100  0.7808E-82  0.7105E-82
  -9.090  0.7808E-82  0.7183E-82
  -9.080  0.7808E-82  0.7261E-82
  -9.070  0.7808E-82  0.7339E-82
  -9.060  0.7808E-82  0.7417E-82
  -9.050  0.7808E-82  0.7495E-82
  -9.040  0.7808E-82  0.7574E-82
  -9.030  0.7808E-82  0.7652E-82
  -9.020  0.7808E-82  0.7730E-82
  -9.010  0.7808E-82  0.7808E-82
  -9.000  0.7808E-82  0.7886E-82
  -8.990  0.7808E-82  0.7964E-82
  -8.980  0.7808E-82  0.8042E-82
  -8.970  0.7808E-82  0.8120E-82
  -8.960  0.7808E-82  0.8198E-82
  -8.950  0.7808E-82  0.8276E-82
  -8.940  0.7808E-82  0.8354E-82
  -8.930  0.7808E-82  0.8432E-82
  -8.920  0.7808E-82  0.8511E-82
  -8.910  0.7808E-82  0.8589E-82
  -8.900  0.7808E-82  0.8667E-82
  -8.890  0.7808E-82  0.8745E-82
  -8.880  0.7808E-82  0.8823E-82
  -8.870  0.7808E-82  0.8901E-82
  -8.860  0.7808E-82  0.8979E-82
  -8.850  0.7808E-82  0.9057E-82
  -8.840  0.7808E-82  0.9135E-82
  -8.830  0.7808E-82  0.9213E-82
  -8.820  0.7808E-82  0.9291E-82
  -8.810  0.7808E-82  0.9369E-82
  -8.800  0.7808E-82  0.9447E-82
  -8.790  0.7808E-82  0.9526E-82
  -8.780  0.7808E-82  0.9604E-82
  -8.770  0.7808E-82  0.9682E-82
  -8.760  0.7808E-82  0.9760E-82
  -8.750  0.7808E-82  0.9838E-82
  -8.740  0.7808E-82  0.9916E-82
  -8.730  0.7808E-82  0.9994E-82
  -8.720  0.7808E-82  0.1007E-81
  -8.710  0.7808E-82  0.1015E-81
  -8.700  0.7808E-82  0.1023E-81
  -8.690  0.7808E-82  0.1031E-81
  -8.680  0.7808E-82  0.1038E-81
  -8.670  0.7808E-82  0.1046E-81
  -8.660  0.7808E-82  0.1054E-81
  -8.650  0.7808E-82  0.1062E-81
  -8.640  0.7808E-82  0.1070E-81
  -8.630  0.7808E-82  0.1077E-81
  -8.620  0.7808E-82  0.1085E-81
  -8.610  0.7808E-82  0.1093E-81
  -8.600  0.7808E-82  0.1101E-81
  -8.590  0.7808E-82  0.1109E-81
  -8.580  0.7808E-82  0.1117E-81
  -8.570  0.7808E-82  0.1124E-81
  -8.560  0.7808E-82  0.1132E-81
  -8.550  0.7808E-82  0.1140E-81
  -8.540  0.7808E-82  0.1148E-81
  -8.530  0.7808E-82  0.1156E-81
  -8.520  0.7808E-82  0.1163E-81
  -8.510  0.7808E-82  0.1171E-81
  -8.500  0.7808E-82  0.1179E-81
  -8.490  0.7808E-82  0.1187E-81
  -8.480  0.7808E-82  0.1195E-81
  -8.470  0.7808E-82  0.1202E-81
  -8.460  0.7808E-82  0.1210E-81
  -8.450  0.7808E-82  0.1218E-81
  -8.440  0.7808E-82  0.1226E-81
  -8.430  0.7808E-82  0.1234E-81
  -8.420  0.7808E-82  0.1241E-81
  -8.410  0.7808E-82  0.1249E-81
  -8.400  0.7808E-82  0.1257E-81
  -8.390  0.7808E-82  0.1265E-81
  -8.380  0.7808E-82  0.1273E-81
  -8.370  0.7808E-82  0.1280E-81
  -8.360  0.7808E-82  0.1288E-81
  -8.350  0.7808E-82  0.1296E-81
  -8.340  0.7808E-82  0.1304E-81
  -8.330  0.7808E-82  0.1312E-81
  -8.320  0.7808E-82  0.1320E-81
  -8.310  0.7808E-82  0.1327E-81
  -8.300  0.7808E-82  0.1335E-81
  -8.290  0.7808E-82  0.1343E-81
  -8.280  0.7808E-82  0.1351E-81
  -8.270  0.7808E-82  0.1359E-81
  -8.260  0.7808E-82  0.1366E-81
  -8.250  0.7808E-82  0.1374E-81
  -8.240  0.7808E-82  0.1382E-81
  -8.230  0.7808E-82  0.1390E-81
  -8.220  0.7808E-82  0.1398E-81
  -8.210  0.7808E-82  0.1405E-81
  -8.200  0.7808E-82  0.1413E-81
  -8.190  0.7808E-82  0.1421E-81
  -8.180  0.7808E-82  0.1429E-81
  -8.170  0.7808E-82  0.1437E-81
  -8.160  0.7808E-82  0.1444E-81
  -8.150  0.7808E-82  0.1452E-81
  -8.140  0.7808E-82  0.1460E-81
  -8.130  0.7808E-82  0.1468E-81
  -8.120  0.7808E-82  0.1476E-81
  -8.110  0.7808E-82  0.1483E-81
  -8.100  0.7808E-82  0.1491E-81
  -8.090  0.7808E-82  0.1499E-81
  -8.080  0.7808E-82  0.1507E-81
  -8.070  0.7808E-82  0.1515E-81
  -8.060  0.7808E-82  0.1523E-81
  -8.050  0.7808E-82  0.1530E-81
  -8.040  0.7808E-82  0.1538E-81
  -8.030  0.7808E-82  0.1546E-81
  -8.020  0.7808E-82  0.1554E-81
  -8.010  0.7808E-82  0.1562E-81
  -8.000  0.7808E-82  0.1569E-81
  -7.990  0.7808E-82  0.1577E-81
  -7.980  0.7808E-82  0.1585E-81
  -7.970  0.7808E-82  0.1593E-81
  -7.960  0.7808E-82  0.1601E-81
  -7.950  0.7808E-82  0.1608E-81
  -7.940  0.7808E-82  0.1616E-81
  -7.930  0.7808E-82  0.1624E-81
  -7.920  0.7808E-82  0.1632E-81
  -7.910  0.7808E-82  0.1640E-81
  -7.900  0.7808E-82  0.1647E-81
  -7.890  0.7808E-82  0.1655E-81
  -7.880  0.7808E-82  0.1663E-81
  -7.870  0.7808E-82  0.1671E-81
  -7.860  0.7808E-82  0.1679E-81
  -7.850  0.7808E-82  0.1686E-81
  -7.840  0.7808E-82  0.1694E-81
  -7.830  0.7808E-82  0.1702E-81
  -7.820  0.7808E-82  0.1710E-81
  -7.810  0.7808E-82  0.1718E-81
  -7.800  0.7808E-82  0.1726E-81
  -7.790  0.7808E-82  0.1733E-81
  -7.780  0.7808E-82  0.1741E-81
  -7.770  0.7808E-82  0.1749E-81
  -7.760  0.7808E-82  0.1757E-81
  -7.750  0.7808E-82  0.1765E-81
  -7.740  0.7808E-82  0.1772E-81
  -7.730  0.7808E-82  0.1780E-81
  -7.720  0.7808E-82  0.1788E-81
  -7.710  0.7808E-82  0.1796E-81
  -7.700  0.7808E-82  0.1804E-81
  -7.690  0.7808E-82  0.1811E-81
  -7.680  0.7808E-82  0.1819E-81
  -7.670  0.7808E-82  0.1827E-81
  -7.660  0.7808E-82  0.1835E-81
  -7.650  0.7808E-82  0.1843E-81
  -7.640  0.7808E-82  0.1850E-81
  -7.630  0.7808E-82  0.1858E-81
  -7.620  0.7808E-82  0.1866E-81
  -7.610  0.7808E-82  0.1874E-81
  -7.600  0.7808E-82  0.1882E-81
  -7.590  0.7808E-82  0.1889E-81
  -7.580  0.7808E-82  0.1897E-81
  -7.570  0.7808E-82  0.1905E-81
  -7.560  0.7808E-82  0.1913E-81
  -7.550  0.7808E-82  0.1921E-81
  -7.540  0.7808E-82  0.1929E-81
  -7.530  0.7808E-82  0.1936E-81
  -7.520  0.7808E-82  0.1944E-81
  -7.510  0.7808E-82  0.1952E-81
  -7.500  0.7808E-82  0.1960E-81
  -7.490  0.7808E-82  0.1968E-81
  -7.480  0.7808E-82  0.1975E-81
  -7.470  0.7808E-82  0.1983E-81
  -7.460  0.7808E-82  0.1991E-81
  -7.450  0.7808E-82  0.1999E-81
  -7.440  0.7808E-82  0.2007E-81
  -7.430  0.7808E-82  0.2014E-81
  -7.420  0.7808E-82  0.2022E-81
  -7.410  0.7808E-82  0.2030E-81
  -7.400  0.7808E-82  0.2038E-81
  -7.390  0.7808E-82  0.2046E-81
  -7.380  0.7808E-82  0.2053E-81
  -7.370  0.7808E-82  0.2061E-81
  -7.360  0.7808E-82  0.2069E-81
  -7.350  0.7808E-82  0.2077E-81
  -7.340  0.7808E-82  0.2085E-81
  -7.330  0.7808E-82  0.2092E-81
  -7.320  0.7808E-82  0.2100E-81
  -7.310  0.7808E-82  0.2108E-81
  -7.300  0.7808E-82  0.2116E-81
  -7.290  0.7808E-82  0.2124E-81
  -7.280  0.7808E-82  0.2132E-81
  -7.270  0.7808E-82  0.2139E-81
  -7.260  0.7808E-82  0.2147E-81
  -7.250  0.7808E-82  0.2155E-81
  -7.240  0.7808E-82  0.2163E-81
  -7.230  0.7808E-82  0.2171E-81
  -7.220  0.7808E-82  0.2178E-81
  -7.210  0.7808E-82  0.2186E-81
  -7.200  0.7808E-82  0.2194E-81
  -7.190  0.7808E-82  0.2202E-81
  -7.180  0.7808E-82  0.2210E-81
  -7.170  0.7808E-82  0.2217E-81
  -7.160  0.7808E-82  0.2225E-81
  -7.150  0.7808E-82  0.2233E-81
  -7.140  0.7808E-82  0.2241E-81
  -7.130  0.7808E-82  0.2249E-81
  -7.120  0.7808E-82  0.2256E-81
  -7.110  0.7808E-82  0.2264E-81
  -7.100  0.7808E-82  0.2272E-81
  -7.090  0.7808E-82  0.2280E-81
  -7.080  0.7808E-82  0.2288E-81
  -7.070  0.7808E-82  0.2295E-81
  -7.060  0.7808E-82  0.2303E-81
  -7.050  0.7808E-82  0.2311E-81
  -7.040  0.7808E-82  0.2319E-81
  -7.030  0.7808E-82  0.2327E-81
  -7.020  0.7808E-82  0.2335E-81
  -7.010  0.7808E-82  0.2342E-81
  -7.000  0.7808E-82  0.2350E-81
  -6.990  0.7808E-82  0.2358E-81
  -6.980  0.7808E-82  0.2366E-81
  -6.970  0.7808E-82  0.2374E-81
  -6.960  0.7808E-82  0.2381E-81
  -6.950  0.7808E-82  0.2389E-81
  -6.940  0.7808E-82  0.2397E-81
  -6.930  0.7808E-82  0.2405E-81
  -6.920  0.7814E-82  0.2413E-81
  -6.910  0.4103E-73  0.4103E-75
  -6.900  0.3367E-62  0.3367E-64
  -6.890  0.3756E-52  0.3756E-54
  -6.880  0.5697E-43  0.5697E-45
  -6.870  0.1176E-34  0.1176E-36
  -6.860  0.3312E-27  0.3312E-29
  -6.850  0.1274E-20  0.1274E-22
  -6.840  0.6704E-15  0.6704E-17
  -6.830  0.4848E-10  0.4848E-12
  -6.820  0.4842E-06  0.4843E-08
  -6.810  0.6742E-03  0.6746E-05
  -6.800  0.1332E+00  0.1339E-02
  -6.790  0.3894E+01  0.4028E-01
  -6.780  0.1903E+02  0.2306E+00
  -6.770  0.2454E+02  0.4760E+00
  -6.760  0.2808E+02  0.7568E+00
  -6.750  0.3162E+02  0.1073E+01
  -6.740  0.1999E+02  0.1273E+01
  -6.730  0.9451E+01  0.1367E+01
  -6.720  0.7743E+01  0.1445E+01
  -6.710  0.1289E+02  0.1574E+01
  -6.700  0.2993E+02  0.1873E+01
  -6.690  0.3938E+02  0.2267E+01
  -6.680  0.3471E+02  0.2614E+01
  -6.670  0.3097E+02  0.2924E+01
  -6.660  0.2559E+02  0.3180E+01
  -6.650  0.2475E+02  0.3427E+01
  -6.640  0.2458E+02  0.3673E+01
  -6.630  0.3406E+02  0.4013E+01
  -6.620  0.4373E+02  0.4451E+01
  -6.610  0.4156E+02  0.4866E+01
  -6.600  0.4189E+02  0.5285E+01
  -6.590  0.3982E+02  0.5683E+01
  -6.580  0.3811E+02  0.6064E+01
  -6.570  0.3475E+02  0.6412E+01
  -6.560  0.3045E+02  0.6716E+01
  -6.550  0.3306E+02  0.7047E+01
  -6.540  0.3458E+02  0.7393E+01
  -6.530  0.3575E+02  0.7750E+01
  -6.520  0.3446E+02  0.8095E+01
  -6.510  0.3942E+02  0.8489E+01
  -6.500  0.3817E+02  0.8871E+01
  -6.490  0.3754E+02  0.9246E+01
  -6.480  0.3459E+02  0.9592E+01
  -6.470  0.4188E+02  0.1001E+02
  -6.460  0.5204E+02  0.1053E+02
  -6.450  0.5073E+02  0.1104E+02
  -6.440  0.6400E+02  0.1168E+02
  -6.430  0.6230E+02  0.1230E+02
  -6.420  0.6481E+02  0.1295E+02
  -6.410  0.7040E+02  0.1365E+02
  -6.400  0.5938E+02  0.1425E+02
  -6.390  0.6472E+02  0.1489E+02
  -6.380  0.7076E+02  0.1560E+02
  -6.370  0.6025E+02  0.1620E+02
  -6.360  0.5166E+02  0.1672E+02
  -6.350  0.6623E+02  0.1738E+02
  -6.340  0.7433E+02  0.1813E+02
  -6.330  0.8017E+02  0.1893E+02
  -6.320  0.7247E+02  0.1965E+02
  -6.310  0.7563E+02  0.2041E+02
  -6.300  0.7187E+02  0.2113E+02
  -6.290  0.6319E+02  0.2176E+02
  -6.280  0.6948E+02  0.2245E+02
  -6.270  0.5752E+02  0.2303E+02
  -6.260  0.5809E+02  0.2361E+02
  -6.250  0.6036E+02  0.2421E+02
  -6.240  0.7317E+02  0.2495E+02
  -6.230  0.9337E+02  0.2588E+02
  -6.220  0.9549E+02  0.2683E+02
  -6.210  0.8076E+02  0.2764E+02
  -6.200  0.6568E+02  0.2830E+02
  -6.190  0.6996E+02  0.2900E+02
  -6.180  0.8078E+02  0.2981E+02
  -6.170  0.9896E+02  0.3080E+02
  -6.160  0.1045E+03  0.3184E+02
  -6.150  0.1048E+03  0.3289E+02
  -6.140  0.1091E+03  0.3398E+02
  -6.130  0.1288E+03  0.3527E+02
  -6.120  0.1390E+03  0.3666E+02
  -6.110  0.1365E+03  0.3802E+02
  -6.100  0.1274E+03  0.3930E+02
  -6.090  0.1195E+03  0.4049E+02
  -6.080  0.1346E+03  0.4184E+02
  -6.070  0.1429E+03  0.4327E+02
  -6.060  0.1288E+03  0.4456E+02
  -6.050  0.1113E+03  0.4567E+02
  -6.040  0.1005E+03  0.4667E+02
  -6.030  0.9309E+02  0.4761E+02
  -6.020  0.9897E+02  0.4859E+02
  -6.010  0.9682E+02  0.4956E+02
  -6.000  0.7448E+02  0.5031E+02
  -5.990  0.7496E+02  0.5106E+02
  -5.980  0.9475E+02  0.5200E+02
  -5.970  0.9241E+02  0.5293E+02
  -5.960  0.7364E+02  0.5367E+02
  -5.950  0.4559E+02  0.5412E+02
  -5.940  0.5403E+02  0.5466E+02
  -5.930  0.1127E+03  0.5579E+02
  -5.920  0.1037E+03  0.5683E+02
  -5.910  0.5625E+02  0.5739E+02
  -5.900  0.3968E+02  0.5778E+02
  -5.890  0.3392E+02  0.5812E+02
  -5.880  0.3118E+02  0.5844E+02
  -5.870  0.3933E+02  0.5883E+02
  -5.860  0.6467E+02  0.5948E+02
  -5.850  0.7327E+02  0.6021E+02
  -5.840  0.7250E+02  0.6093E+02
  -5.830  0.6650E+02  0.6160E+02
  -5.820  0.4662E+02  0.6206E+02
  -5.810  0.4476E+02  0.6251E+02
  -5.800  0.5447E+02  0.6306E+02
  -5.790  0.4456E+02  0.6350E+02
  -5.780  0.3050E+02  0.6381E+02
  -5.770  0.2430E+02  0.6405E+02
  -5.760  0.2496E+02  0.6430E+02
  -5.750  0.2480E+02  0.6455E+02
  -5.740  0.2768E+02  0.6483E+02
  -5.730  0.4334E+02  0.6526E+02
  -5.720  0.4109E+02  0.6567E+02
  -5.710  0.2665E+02  0.6594E+02
  -5.700  0.1391E+02  0.6608E+02
  -5.690  0.1760E+02  0.6625E+02
  -5.680  0.2054E+02  0.6646E+02
  -5.670  0.2598E+02  0.6672E+02
  -5.660  0.4876E+02  0.6720E+02
  -5.650  0.6624E+02  0.6787E+02
  -5.640  0.5350E+02  0.6840E+02
  -5.630  0.4333E+02  0.6883E+02
  -5.620  0.4090E+02  0.6924E+02
  -5.610  0.3125E+02  0.6956E+02
  -5.600  0.2267E+02  0.6978E+02
  -5.590  0.2262E+02  0.7001E+02
  -5.580  0.2286E+02  0.7024E+02
  -5.570  0.3311E+02  0.7057E+02
  -5.560  0.4579E+02  0.7103E+02
  -5.550  0.4029E+02  0.7143E+02
  -5.540  0.4057E+02  0.7184E+02
  -5.530  0.3193E+02  0.7215E+02
  -5.520  0.2363E+02  0.7239E+02
  -5.510  0.2175E+02  0.7261E+02
  -5.500  0.2328E+02  0.7284E+02
  -5.490  0.2235E+02  0.7306E+02
  -5.480  0.2304E+02  0.7329E+02
  -5.470  0.3370E+02  0.7363E+02
  -5.460  0.3246E+02  0.7396E+02
  -5.450  0.2887E+02  0.7425E+02
  -5.440  0.2374E+02  0.7448E+02
  -5.430  0.1757E+02  0.7466E+02
  -5.420  0.1547E+02  0.7481E+02
  -5.410  0.1860E+02  0.7500E+02
  -5.400  0.1908E+02  0.7519E+02
  -5.390  0.1795E+02  0.7537E+02
  -5.380  0.1689E+02  0.7554E+02
  -5.370  0.1450E+02  0.7568E+02
  -5.360  0.1461E+02  0.7583E+02
  -5.350  0.1900E+02  0.7602E+02
  -5.340  0.1614E+02  0.7618E+02
  -5.330  0.1568E+02  0.7634E+02
  -5.320  0.1289E+02  0.7647E+02
  -5.310  0.1680E+02  0.7663E+02
  -5.300  0.1758E+02  0.7681E+02
  -5.290  0.1774E+02  0.7699E+02
  -5.280  0.1450E+02  0.7713E+02
  -5.270  0.1418E+02  0.7727E+02
  -5.260  0.1373E+02  0.7741E+02
  -5.250  0.1457E+02  0.7756E+02
  -5.240  0.2024E+02  0.7776E+02
  -5.230  0.2614E+02  0.7802E+02
  -5.220  0.1925E+02  0.7821E+02
  -5.210  0.1337E+02  0.7835E+02
  -5.200  0.1236E+02  0.7847E+02
  -5.190  0.1574E+02  0.7863E+02
  -5.180  0.1948E+02  0.7882E+02
  -5.170  0.1407E+02  0.7896E+02
  -5.160  0.1186E+02  0.7908E+02
  -5.150  0.1259E+02  0.7921E+02
  -5.140  0.1466E+02  0.7936E+02
  -5.130  0.1538E+02  0.7951E+02
  -5.120  0.1727E+02  0.7968E+02
  -5.110  0.2347E+02  0.7992E+02
  -5.100  0.2816E+02  0.8020E+02
  -5.090  0.3949E+02  0.8059E+02
  -5.080  0.6325E+02  0.8123E+02
  -5.070  0.7300E+02  0.8196E+02
  -5.060  0.7864E+02  0.8274E+02
  -5.050  0.7382E+02  0.8348E+02
  -5.040  0.7820E+02  0.8426E+02
  -5.030  0.8386E+02  0.8510E+02
  -5.020  0.8580E+02  0.8596E+02
  -5.010  0.1047E+03  0.8701E+02
  -5.000  0.1085E+03  0.8809E+02
  -4.990  0.1132E+03  0.8922E+02
  -4.980  0.1070E+03  0.9029E+02
  -4.970  0.1102E+03  0.9140E+02
  -4.960  0.1354E+03  0.9275E+02
  -4.950  0.1365E+03  0.9411E+02
  -4.940  0.1348E+03  0.9546E+02
  -4.930  0.1261E+03  0.9672E+02
  -4.920  0.1311E+03  0.9803E+02
  -4.910  0.1553E+03  0.9959E+02
  -4.900  0.1601E+03  0.1012E+03
  -4.890  0.1791E+03  0.1030E+03
  -4.880  0.1832E+03  0.1048E+03
  -4.870  0.1535E+03  0.1063E+03
  -4.860  0.1400E+03  0.1077E+03
  -4.850  0.1261E+03  0.1090E+03
  -4.840  0.1044E+03  0.1101E+03
  -4.830  0.9801E+02  0.1110E+03
  -4.820  0.9872E+02  0.1120E+03
  -4.810  0.1046E+03  0.1131E+03
  -4.800  0.1170E+03  0.1142E+03
  -4.790  0.8995E+02  0.1151E+03
  -4.780  0.7555E+02  0.1159E+03
  -4.770  0.7037E+02  0.1166E+03
  -4.760  0.7099E+02  0.1173E+03
  -4.750  0.8232E+02  0.1181E+03
  -4.740  0.8744E+02  0.1190E+03
  -4.730  0.9985E+02  0.1200E+03
  -4.720  0.8339E+02  0.1208E+03
  -4.710  0.8424E+02  0.1217E+03
  -4.700  0.1077E+03  0.1228E+03
  -4.690  0.8231E+02  0.1236E+03
  -4.680  0.4553E+02  0.1240E+03
  -4.670  0.5747E+02  0.1246E+03
  -4.660  0.6615E+02  0.1253E+03
  -4.650  0.4175E+02  0.1257E+03
  -4.640  0.4921E+02  0.1262E+03
  -4.630  0.6226E+02  0.1268E+03
  -4.620  0.5081E+02  0.1273E+03
  -4.610  0.5822E+02  0.1279E+03
  -4.600  0.5824E+02  0.1285E+03
  -4.590  0.5786E+02  0.1291E+03
  -4.580  0.3853E+02  0.1294E+03
  -4.570  0.2860E+02  0.1297E+03
  -4.560  0.3540E+02  0.1301E+03
  -4.550  0.4239E+02  0.1305E+03
  -4.540  0.3109E+02  0.1308E+03
  -4.530  0.2703E+02  0.1311E+03
  -4.520  0.2833E+02  0.1314E+03
  -4.510  0.3023E+02  0.1317E+03
  -4.500  0.3062E+02  0.1320E+03
  -4.490  0.4651E+02  0.1324E+03
  -4.480  0.5804E+02  0.1330E+03
  -4.470  0.4791E+02  0.1335E+03
  -4.460  0.3516E+02  0.1338E+03
  -4.450  0.2869E+02  0.1341E+03
  -4.440  0.2239E+02  0.1344E+03
  -4.430  0.1589E+02  0.1345E+03
  -4.420  0.1997E+02  0.1347E+03
  -4.410  0.1590E+02  0.1349E+03
  -4.400  0.1263E+02  0.1350E+03
  -4.390  0.1580E+02  0.1352E+03
  -4.380  0.1929E+02  0.1354E+03
  -4.370  0.3209E+02  0.1357E+03
  -4.360  0.3570E+02  0.1360E+03
  -4.350  0.3484E+02  0.1364E+03
  -4.340  0.5229E+02  0.1369E+03
  -4.330  0.5665E+02  0.1375E+03
  -4.320  0.6603E+02  0.1381E+03
  -4.310  0.6868E+02  0.1388E+03
  -4.300  0.7408E+02  0.1396E+03
  -4.290  0.8562E+02  0.1404E+03
  -4.280  0.1045E+03  0.1415E+03
  -4.270  0.1100E+03  0.1426E+03
  -4.260  0.1050E+03  0.1436E+03
  -4.250  0.1213E+03  0.1448E+03
  -4.240  0.1302E+03  0.1461E+03
  -4.230  0.1566E+03  0.1477E+03
  -4.220  0.1746E+03  0.1494E+03
  -4.210  0.1550E+03  0.1510E+03
  -4.200  0.1563E+03  0.1525E+03
  -4.190  0.1788E+03  0.1543E+03
  -4.180  0.1702E+03  0.1560E+03
  -4.170  0.1413E+03  0.1575E+03
  -4.160  0.1297E+03  0.1587E+03
  -4.150  0.1303E+03  0.1601E+03
  -4.140  0.1081E+03  0.1611E+03
  -4.130  0.1126E+03  0.1623E+03
  -4.120  0.1147E+03  0.1634E+03
  -4.110  0.1152E+03  0.1646E+03
  -4.100  0.1097E+03  0.1657E+03
  -4.090  0.8060E+02  0.1665E+03
  -4.080  0.8038E+02  0.1673E+03
  -4.070  0.8736E+02  0.1681E+03
  -4.060  0.1067E+03  0.1692E+03
  -4.050  0.1120E+03  0.1703E+03
  -4.040  0.8117E+02  0.1711E+03
  -4.030  0.5984E+02  0.1717E+03
  -4.020  0.6185E+02  0.1724E+03
  -4.010  0.6703E+02  0.1730E+03
  -4.000  0.7768E+02  0.1738E+03
  -3.990  0.8097E+02  0.1746E+03
  -3.980  0.6614E+02  0.1753E+03
  -3.970  0.6152E+02  0.1759E+03
  -3.960  0.6663E+02  0.1766E+03
  -3.950  0.7094E+02  0.1773E+03
  -3.940  0.6898E+02  0.1780E+03
  -3.930  0.7411E+02  0.1787E+03
  -3.920  0.7901E+02  0.1795E+03
  -3.910  0.6981E+02  0.1802E+03
  -3.900  0.6325E+02  0.1808E+03
  -3.890  0.6413E+02  0.1815E+03
  -3.880  0.5133E+02  0.1820E+03
  -3.870  0.4554E+02  0.1824E+03
  -3.860  0.6051E+02  0.1830E+03
  -3.850  0.7025E+02  0.1837E+03
  -3.840  0.6315E+02  0.1844E+03
  -3.830  0.5088E+02  0.1849E+03
  -3.820  0.4520E+02  0.1853E+03
  -3.810  0.4327E+02  0.1858E+03
  -3.800  0.3707E+02  0.1861E+03
  -3.790  0.2677E+02  0.1864E+03
  -3.780  0.2405E+02  0.1866E+03
  -3.770  0.3429E+02  0.1870E+03
  -3.760  0.4997E+02  0.1875E+03
  -3.750  0.5403E+02  0.1880E+03
  -3.740  0.3859E+02  0.1884E+03
  -3.730  0.3678E+02  0.1888E+03
  -3.720  0.3457E+02  0.1891E+03
  -3.710  0.3650E+02  0.1895E+03
  -3.700  0.3396E+02  0.1898E+03
  -3.690  0.2760E+02  0.1901E+03
  -3.680  0.2257E+02  0.1903E+03
  -3.670  0.2463E+02  0.1906E+03
  -3.660  0.3021E+02  0.1909E+03
  -3.650  0.3989E+02  0.1913E+03
  -3.640  0.5425E+02  0.1918E+03
  -3.630  0.5754E+02  0.1924E+03
  -3.620  0.5901E+02  0.1930E+03
  -3.610  0.4716E+02  0.1935E+03
  -3.600  0.5631E+02  0.1940E+03
  -3.590  0.6196E+02  0.1946E+03
  -3.580  0.5511E+02  0.1952E+03
  -3.570  0.3626E+02  0.1955E+03
  -3.560  0.2893E+02  0.1958E+03
  -3.550  0.3114E+02  0.1961E+03
  -3.540  0.2973E+02  0.1964E+03
  -3.530  0.2482E+02  0.1967E+03
  -3.520  0.2425E+02  0.1969E+03
  -3.510  0.3674E+02  0.1973E+03
  -3.500  0.6068E+02  0.1979E+03
  -3.490  0.6697E+02  0.1986E+03
  -3.480  0.3927E+02  0.1990E+03
  -3.470  0.2937E+02  0.1993E+03
  -3.460  0.4150E+02  0.1997E+03
  -3.450  0.5436E+02  0.2002E+03
  -3.440  0.5127E+02  0.2007E+03
  -3.430  0.4525E+02  0.2012E+03
  -3.420  0.2955E+02  0.2015E+03
  -3.410  0.3533E+02  0.2018E+03
  -3.400  0.4393E+02  0.2023E+03
  -3.390  0.4092E+02  0.2027E+03
  -3.380  0.4621E+02  0.2031E+03
  -3.370  0.4759E+02  0.2036E+03
  -3.360  0.4771E+02  0.2041E+03
  -3.350  0.5034E+02  0.2046E+03
  -3.340  0.4882E+02  0.2051E+03
  -3.330  0.5041E+02  0.2056E+03
  -3.320  0.5424E+02  0.2061E+03
  -3.310  0.4896E+02  0.2066E+03
  -3.300  0.4081E+02  0.2070E+03
  -3.290  0.4651E+02  0.2075E+03
  -3.280  0.5155E+02  0.2080E+03
  -3.270  0.4768E+02  0.2085E+03
  -3.260  0.3951E+02  0.2089E+03
  -3.250  0.3772E+02  0.2093E+03
  -3.240  0.4418E+02  0.2097E+03
  -3.230  0.5473E+02  0.2103E+03
  -3.220  0.4493E+02  0.2107E+03
  -3.210  0.4380E+02  0.2111E+03
  -3.200  0.5208E+02  0.2117E+03
  -3.190  0.5263E+02  0.2122E+03
  -3.180  0.4660E+02  0.2127E+03
  -3.170  0.5001E+02  0.2132E+03
  -3.160  0.5317E+02  0.2137E+03
  -3.150  0.6498E+02  0.2143E+03
  -3.140  0.6781E+02  0.2150E+03
  -3.130  0.6025E+02  0.2156E+03
  -3.120  0.5725E+02  0.2162E+03
  -3.110  0.5960E+02  0.2168E+03
  -3.100  0.6074E+02  0.2174E+03
  -3.090  0.6083E+02  0.2180E+03
  -3.080  0.6173E+02  0.2186E+03
  -3.070  0.6363E+02  0.2193E+03
  -3.060  0.5847E+02  0.2198E+03
  -3.050  0.5768E+02  0.2204E+03
  -3.040  0.6507E+02  0.2211E+03
  -3.030  0.6219E+02  0.2217E+03
  -3.020  0.4729E+02  0.2222E+03
  -3.010  0.6586E+02  0.2228E+03
  -3.000  0.7991E+02  0.2236E+03
  -2.990  0.7041E+02  0.2243E+03
  -2.980  0.6278E+02  0.2250E+03
  -2.970  0.6688E+02  0.2256E+03
  -2.960  0.7282E+02  0.2264E+03
  -2.950  0.8203E+02  0.2272E+03
  -2.940  0.8312E+02  0.2280E+03
  -2.930  0.8327E+02  0.2288E+03
  -2.920  0.8723E+02  0.2297E+03
  -2.910  0.8943E+02  0.2306E+03
  -2.900  0.8694E+02  0.2315E+03
  -2.890  0.8378E+02  0.2323E+03
  -2.880  0.1005E+03  0.2333E+03
  -2.870  0.1271E+03  0.2346E+03
  -2.860  0.1281E+03  0.2359E+03
  -2.850  0.1167E+03  0.2370E+03
  -2.840  0.1177E+03  0.2382E+03
  -2.830  0.1304E+03  0.2395E+03
  -2.820  0.1426E+03  0.2409E+03
  -2.810  0.1442E+03  0.2424E+03
  -2.800  0.1229E+03  0.2436E+03
  -2.790  0.9300E+02  0.2445E+03
  -2.780  0.9831E+02  0.2455E+03
  -2.770  0.1076E+03  0.2466E+03
  -2.760  0.1007E+03  0.2476E+03
  -2.750  0.9362E+02  0.2485E+03
  -2.740  0.8720E+02  0.2494E+03
  -2.730  0.8584E+02  0.2503E+03
  -2.720  0.7087E+02  0.2510E+03
  -2.710  0.6408E+02  0.2516E+03
  -2.700  0.6672E+02  0.2523E+03
  -2.690  0.9293E+02  0.2532E+03
  -2.680  0.1042E+03  0.2543E+03
  -2.670  0.9373E+02  0.2552E+03
  -2.660  0.9322E+02  0.2561E+03
  -2.650  0.9618E+02  0.2571E+03
  -2.640  0.8753E+02  0.2580E+03
  -2.630  0.7873E+02  0.2588E+03
  -2.620  0.8057E+02  0.2596E+03
  -2.610  0.7610E+02  0.2603E+03
  -2.600  0.4190E+02  0.2607E+03
  -2.590  0.3421E+02  0.2611E+03
  -2.580  0.4284E+02  0.2615E+03
  -2.570  0.3853E+02  0.2619E+03
  -2.560  0.4097E+02  0.2623E+03
  -2.550  0.5268E+02  0.2628E+03
  -2.540  0.6262E+02  0.2635E+03
  -2.530  0.7081E+02  0.2642E+03
  -2.520  0.7271E+02  0.2649E+03
  -2.510  0.7141E+02  0.2656E+03
  -2.500  0.7374E+02  0.2663E+03
  -2.490  0.6208E+02  0.2670E+03
  -2.480  0.5427E+02  0.2675E+03
  -2.470  0.4219E+02  0.2679E+03
  -2.460  0.3964E+02  0.2683E+03
  -2.450  0.4474E+02  0.2688E+03
  -2.440  0.5195E+02  0.2693E+03
  -2.430  0.5510E+02  0.2698E+03
  -2.420  0.5579E+02  0.2704E+03
  -2.410  0.4567E+02  0.2709E+03
  -2.400  0.3671E+02  0.2712E+03
  -2.390  0.4115E+02  0.2716E+03
  -2.380  0.4106E+02  0.2720E+03
  -2.370  0.3907E+02  0.2724E+03
  -2.360  0.4121E+02  0.2729E+03
  -2.350  0.5135E+02  0.2734E+03
  -2.340  0.6028E+02  0.2740E+03
  -2.330  0.5541E+02  0.2745E+03
  -2.320  0.4259E+02  0.2749E+03
  -2.310  0.4928E+02  0.2754E+03
  -2.300  0.4052E+02  0.2758E+03
  -2.290  0.3950E+02  0.2762E+03
  -2.280  0.4615E+02  0.2767E+03
  -2.270  0.4354E+02  0.2771E+03
  -2.260  0.5363E+02  0.2777E+03
  -2.250  0.5793E+02  0.2783E+03
  -2.240  0.6035E+02  0.2789E+03
  -2.230  0.7412E+02  0.2796E+03
  -2.220  0.8029E+02  0.2804E+03
  -2.210  0.8557E+02  0.2813E+03
  -2.200  0.6546E+02  0.2819E+03
  -2.190  0.4414E+02  0.2824E+03
  -2.180  0.3744E+02  0.2827E+03
  -2.170  0.4572E+02  0.2832E+03
  -2.160  0.7081E+02  0.2839E+03
  -2.150  0.7539E+02  0.2846E+03
  -2.140  0.7677E+02  0.2854E+03
  -2.130  0.8270E+02  0.2862E+03
  -2.120  0.7359E+02  0.2870E+03
  -2.110  0.5561E+02  0.2875E+03
  -2.100  0.5826E+02  0.2881E+03
  -2.090  0.6117E+02  0.2887E+03
  -2.080  0.5115E+02  0.2892E+03
  -2.070  0.4027E+02  0.2896E+03
  -2.060  0.3417E+02  0.2900E+03
  -2.050  0.4146E+02  0.2904E+03
  -2.040  0.5405E+02  0.2909E+03
  -2.030  0.4672E+02  0.2914E+03
  -2.020  0.2997E+02  0.2917E+03
  -2.010  0.3490E+02  0.2921E+03
  -2.000  0.4196E+02  0.2925E+03
  -1.990  0.2894E+02  0.2928E+03
  -1.980  0.3667E+02  0.2931E+03
  -1.970  0.4059E+02  0.2935E+03
  -1.960  0.5875E+02  0.2941E+03
  -1.950  0.6652E+02  0.2948E+03
  -1.940  0.4198E+02  0.2952E+03
  -1.930  0.3141E+02  0.2955E+03
  -1.920  0.5329E+02  0.2961E+03
  -1.910  0.7070E+02  0.2968E+03
  -1.900  0.8869E+02  0.2976E+03
  -1.890  0.9062E+02  0.2986E+03
  -1.880  0.8765E+02  0.2994E+03
  -1.870  0.8796E+02  0.3003E+03
  -1.860  0.9817E+02  0.3013E+03
  -1.850  0.9879E+02  0.3023E+03
  -1.840  0.7538E+02  0.3030E+03
  -1.830  0.5993E+02  0.3036E+03
  -1.820  0.6084E+02  0.3042E+03
  -1.810  0.7525E+02  0.3050E+03
  -1.800  0.8746E+02  0.3059E+03
  -1.790  0.9024E+02  0.3068E+03
  -1.780  0.8400E+02  0.3076E+03
  -1.770  0.7101E+02  0.3083E+03
  -1.760  0.6919E+02  0.3090E+03
  -1.750  0.6895E+02  0.3097E+03
  -1.740  0.6177E+02  0.3103E+03
  -1.730  0.6085E+02  0.3109E+03
  -1.720  0.6329E+02  0.3116E+03
  -1.710  0.6474E+02  0.3122E+03
  -1.700  0.6023E+02  0.3128E+03
  -1.690  0.6310E+02  0.3134E+03
  -1.680  0.6497E+02  0.3141E+03
  -1.670  0.5645E+02  0.3147E+03
  -1.660  0.6104E+02  0.3153E+03
  -1.650  0.7892E+02  0.3161E+03
  -1.640  0.8202E+02  0.3169E+03
  -1.630  0.6767E+02  0.3176E+03
  -1.620  0.5768E+02  0.3181E+03
  -1.610  0.6290E+02  0.3188E+03
  -1.600  0.6994E+02  0.3195E+03
  -1.590  0.6133E+02  0.3201E+03
  -1.580  0.5840E+02  0.3207E+03
  -1.570  0.5818E+02  0.3212E+03
  -1.560  0.6646E+02  0.3219E+03
  -1.550  0.7435E+02  0.3226E+03
  -1.540  0.6782E+02  0.3233E+03
  -1.530  0.6046E+02  0.3239E+03
  -1.520  0.7136E+02  0.3246E+03
  -1.510  0.6833E+02  0.3253E+03
  -1.500  0.5711E+02  0.3259E+03
  -1.490  0.6560E+02  0.3266E+03
  -1.480  0.7002E+02  0.3273E+03
  -1.470  0.7174E+02  0.3280E+03
  -1.460  0.7248E+02  0.3287E+03
  -1.450  0.5925E+02  0.3293E+03
  -1.440  0.4277E+02  0.3297E+03
  -1.430  0.4603E+02  0.3302E+03
  -1.420  0.4583E+02  0.3306E+03
  -1.410  0.4296E+02  0.3311E+03
  -1.400  0.4049E+02  0.3315E+03
  -1.390  0.4443E+02  0.3319E+03
  -1.380  0.4035E+02  0.3323E+03
  -1.370  0.3396E+02  0.3327E+03
  -1.360  0.3439E+02  0.3330E+03
  -1.350  0.4467E+02  0.3334E+03
  -1.340  0.4150E+02  0.3339E+03
  -1.330  0.3604E+02  0.3342E+03
  -1.320  0.3827E+02  0.3346E+03
  -1.310  0.3265E+02  0.3349E+03
  -1.300  0.3440E+02  0.3353E+03
  -1.290  0.3963E+02  0.3357E+03
  -1.280  0.3505E+02  0.3360E+03
  -1.270  0.2884E+02  0.3363E+03
  -1.260  0.2916E+02  0.3366E+03
  -1.250  0.3501E+02  0.3370E+03
  -1.240  0.3777E+02  0.3373E+03
  -1.230  0.3006E+02  0.3376E+03
  -1.220  0.1990E+02  0.3378E+03
  -1.210  0.3152E+02  0.3381E+03
  -1.200  0.4281E+02  0.3386E+03
  -1.190  0.4352E+02  0.3390E+03
  -1.180  0.3204E+02  0.3393E+03
  -1.170  0.2038E+02  0.3395E+03
  -1.160  0.2560E+02  0.3398E+03
  -1.150  0.4046E+02  0.3402E+03
  -1.140  0.3826E+02  0.3406E+03
  -1.130  0.2676E+02  0.3408E+03
  -1.120  0.4079E+02  0.3413E+03
  -1.110  0.6735E+02  0.3419E+03
  -1.100  0.4837E+02  0.3424E+03
  -1.090  0.3684E+02  0.3428E+03
  -1.080  0.3294E+02  0.3431E+03
  -1.070  0.2315E+02  0.3433E+03
  -1.060  0.1495E+02  0.3435E+03
  -1.050  0.7147E+01  0.3436E+03
  -1.040  0.4571E+01  0.3436E+03
  -1.030  0.5178E+01  0.3437E+03
  -1.020  0.6124E+01  0.3437E+03
  -1.010  0.1610E+02  0.3439E+03
  -1.000  0.3439E+02  0.3442E+03
  -0.990  0.4800E+02  0.3447E+03
  -0.980  0.3273E+02  0.3450E+03
  -0.970  0.1478E+02  0.3452E+03
  -0.960  0.1298E+02  0.3453E+03
  -0.950  0.1545E+02  0.3455E+03
  -0.940  0.2200E+02  0.3457E+03
  -0.930  0.2386E+02  0.3459E+03
  -0.920  0.7498E+01  0.3460E+03
  -0.910  0.4151E+00  0.3460E+03
  -0.900  0.3467E-02  0.3460E+03
  -0.890  0.4140E-05  0.3460E+03
  -0.880  0.6914E-09  0.3460E+03
  -0.870  0.1596E-13  0.3460E+03
  -0.860  0.5062E-19  0.3460E+03
  -0.850  0.2196E-25  0.3460E+03
  -0.840  0.1301E-32  0.3460E+03
  -0.830  0.1050E-40  0.3460E+03
  -0.820  0.1153E-49  0.3460E+03
  -0.810  0.1722E-59  0.3460E+03
  -0.800  0.3496E-70  0.3460E+03
  -0.790  0.1745E-81  0.3460E+03
  -0.780  0.7808E-82  0.3460E+03
  -0.770  0.7808E-82  0.3460E+03
  -0.760  0.7808E-82  0.3460E+03
  -0.750  0.7808E-82  0.3460E+03
  -0.740  0.7808E-82  0.3460E+03
  -0.730  0.7808E-82  0.3460E+03
  -0.720  0.7808E-82  0.3460E+03
  -0.710  0.7808E-82  0.3460E+03
  -0.700  0.7808E-82  0.3460E+03
  -0.690  0.7808E-82  0.3460E+03
  -0.680  0.7808E-82  0.3460E+03
  -0.670  0.7808E-82  0.3460E+03
  -0.660  0.7808E-82  0.3460E+03
  -0.650  0.7808E-82  0.3460E+03
  -0.640  0.7808E-82  0.3460E+03
  -0.630  0.7808E-82  0.3460E+03
  -0.620  0.7808E-82  0.3460E+03
  -0.610  0.7808E-82  0.3460E+03
  -0.600  0.7808E-82  0.3460E+03
  -0.590  0.7808E-82  0.3460E+03
  -0.580  0.7808E-82  0.3460E+03
  -0.570  0.7808E-82  0.3460E+03
  -0.560  0.7808E-82  0.3460E+03
  -0.550  0.7808E-82  0.3460E+03
  -0.540  0.7808E-82  0.3460E+03
  -0.530  0.7808E-82  0.3460E+03
  -0.520  0.7808E-82  0.3460E+03
  -0.510  0.7808E-82  0.3460E+03
  -0.500  0.7808E-82  0.3460E+03
  -0.490  0.7808E-82  0.3460E+03
  -0.480  0.7808E-82  0.3460E+03
  -0.470  0.7808E-82  0.3460E+03
  -0.460  0.7808E-82  0.3460E+03
  -0.450  0.7808E-82  0.3460E+03
  -0.440  0.7808E-82  0.3460E+03
  -0.430  0.7808E-82  0.3460E+03
  -0.420  0.7808E-82  0.3460E+03
  -0.410  0.7808E-82  0.3460E+03
  -0.400  0.7808E-82  0.3460E+03
  -0.390  0.7808E-82  0.3460E+03
  -0.380  0.7808E-82  0.3460E+03
  -0.370  0.7808E-82  0.3460E+03
  -0.360  0.7808E-82  0.3460E+03
  -0.350  0.7808E-82  0.3460E+03
  -0.340  0.7808E-82  0.3460E+03
  -0.330  0.7808E-82  0.3460E+03
  -0.320  0.7808E-82  0.3460E+03
  -0.310  0.7808E-82  0.3460E+03
  -0.300  0.7808E-82  0.3460E+03
  -0.290  0.7808E-82  0.3460E+03
  -0.280  0.7808E-82  0.3460E+03
  -0.270  0.7808E-82  0.3460E+03
  -0.260  0.7808E-82  0.3460E+03
  -0.250  0.7808E-82  0.3460E+03
  -0.240  0.7808E-82  0.3460E+03
  -0.230  0.7808E-82  0.3460E+03
  -0.220  0.7808E-82  0.3460E+03
  -0.210  0.7808E-82  0.3460E+03
  -0.200  0.7808E-82  0.3460E+03
  -0.190  0.7808E-82  0.3460E+03
  -0.180  0.7808E-82  0.3460E+03
  -0.170  0.7808E-82  0.3460E+03
  -0.160  0.7808E-82  0.3460E+03
  -0.150  0.7808E-82  0.3460E+03
  -0.140  0.7808E-82  0.3460E+03
  -0.130  0.7808E-82  0.3460E+03
  -0.120  0.7808E-82  0.3460E+03
  -0.110  0.7808E-82  0.3460E+03
  -0.100  0.7808E-82  0.3460E+03
  -0.090  0.7808E-82  0.3460E+03
  -0.080  0.7808E-82  0.3460E+03
  -0.070  0.7808E-82  0.3460E+03
  -0.060  0.7808E-82  0.3460E+03
  -0.050  0.7808E-82  0.3460E+03
  -0.040  0.7808E-82  0.3460E+03
  -0.030  0.7808E-82  0.3460E+03
  -0.020  0.7808E-82  0.3460E+03
  -0.010  0.7808E-82  0.3460E+03
   0.000  0.7808E-82  0.3460E+03
