#  E (eV)   dos(E)     Int dos(E) EFermi =    0.000 eV
 -61.837  0.5506E-02  0.1652E-03
 -61.807  0.1202E+01  0.3621E-01
 -61.777  0.4460E+02  0.1374E+01
 -61.747  0.3601E+03  0.1218E+02
 -61.717  0.7984E+03  0.3613E+02
 -61.687  0.4215E+03  0.4878E+02
 -61.657  0.4018E+02  0.4998E+02
 -61.627  0.5981E+00  0.5000E+02
 -61.597  0.1311E-02  0.5000E+02
 -61.567  0.4118E-06  0.5000E+02
 -61.537  0.1825E-10  0.5000E+02
 -61.507  0.1131E-15  0.5000E+02
 -61.477  0.9718E-22  0.5000E+02
 -61.447  0.1153E-28  0.5000E+02
 -61.417  0.1881E-36  0.5000E+02
 -61.387  0.4204E-45  0.5000E+02
 -61.357  0.1285E-54  0.5000E+02
 -61.327  0.5359E-65  0.5000E+02
 -61.297  0.3045E-76  0.5000E+02
 -61.267  0.2603E-82  0.5000E+02
 -61.237  0.2603E-82  0.5000E+02
 -61.207  0.2603E-82  0.5000E+02
 -61.177  0.2603E-82  0.5000E+02
 -61.147  0.2603E-82  0.5000E+02
 -61.117  0.2603E-82  0.5000E+02
 -61.087  0.2603E-82  0.5000E+02
 -61.057  0.2603E-82  0.5000E+02
 -61.027  0.2603E-82  0.5000E+02
 -60.997  0.2603E-82  0.5000E+02
 -60.967  0.2603E-82  0.5000E+02
 -60.937  0.2603E-82  0.5000E+02
 -60.907  0.2603E-82  0.5000E+02
 -60.877  0.2603E-82  0.5000E+02
 -60.847  0.2603E-82  0.5000E+02
 -60.817  0.2603E-82  0.5000E+02
 -60.787  0.2603E-82  0.5000E+02
 -60.757  0.2603E-82  0.5000E+02
 -60.727  0.2603E-82  0.5000E+02
 -60.697  0.2603E-82  0.5000E+02
 -60.667  0.2603E-82  0.5000E+02
 -60.637  0.2603E-82  0.5000E+02
 -60.607  0.2603E-82  0.5000E+02
 -60.577  0.2603E-82  0.5000E+02
 -60.547  0.2603E-82  0.5000E+02
 -60.517  0.2603E-82  0.5000E+02
 -60.487  0.2603E-82  0.5000E+02
 -60.457  0.2603E-82  0.5000E+02
 -60.427  0.2603E-82  0.5000E+02
 -60.397  0.2603E-82  0.5000E+02
 -60.367  0.2603E-82  0.5000E+02
 -60.337  0.2603E-82  0.5000E+02
 -60.307  0.2603E-82  0.5000E+02
 -60.277  0.2603E-82  0.5000E+02
 -60.247  0.2603E-82  0.5000E+02
 -60.217  0.2603E-82  0.5000E+02
 -60.187  0.2603E-82  0.5000E+02
 -60.157  0.2603E-82  0.5000E+02
 -60.127  0.2603E-82  0.5000E+02
 -60.097  0.2603E-82  0.5000E+02
 -60.067  0.2603E-82  0.5000E+02
 -60.037  0.2603E-82  0.5000E+02
 -60.007  0.2603E-82  0.5000E+02
 -59.977  0.2603E-82  0.5000E+02
 -59.947  0.2603E-82  0.5000E+02
 -59.917  0.2603E-82  0.5000E+02
 -59.887  0.2603E-82  0.5000E+02
 -59.857  0.2603E-82  0.5000E+02
 -59.827  0.2603E-82  0.5000E+02
 -59.797  0.2603E-82  0.5000E+02
 -59.767  0.2603E-82  0.5000E+02
 -59.737  0.2603E-82  0.5000E+02
 -59.707  0.2603E-82  0.5000E+02
 -59.677  0.2603E-82  0.5000E+02
 -59.647  0.2603E-82  0.5000E+02
 -59.617  0.2603E-82  0.5000E+02
 -59.587  0.2603E-82  0.5000E+02
 -59.557  0.2603E-82  0.5000E+02
 -59.527  0.2603E-82  0.5000E+02
 -59.497  0.2603E-82  0.5000E+02
 -59.467  0.2603E-82  0.5000E+02
 -59.437  0.2603E-82  0.5000E+02
 -59.407  0.2603E-82  0.5000E+02
 -59.377  0.2603E-82  0.5000E+02
 -59.347  0.2603E-82  0.5000E+02
 -59.317  0.2603E-82  0.5000E+02
 -59.287  0.2603E-82  0.5000E+02
 -59.257  0.2603E-82  0.5000E+02
 -59.227  0.2603E-82  0.5000E+02
 -59.197  0.2603E-82  0.5000E+02
 -59.167  0.2603E-82  0.5000E+02
 -59.137  0.2603E-82  0.5000E+02
 -59.107  0.2603E-82  0.5000E+02
 -59.077  0.2603E-82  0.5000E+02
 -59.047  0.2603E-82  0.5000E+02
 -59.017  0.2603E-82  0.5000E+02
 -58.987  0.2603E-82  0.5000E+02
 -58.957  0.2603E-82  0.5000E+02
 -58.927  0.2603E-82  0.5000E+02
 -58.897  0.2603E-82  0.5000E+02
 -58.867  0.2603E-82  0.5000E+02
 -58.837  0.2603E-82  0.5000E+02
 -58.807  0.2603E-82  0.5000E+02
 -58.777  0.2603E-82  0.5000E+02
 -58.747  0.2603E-82  0.5000E+02
 -58.717  0.2603E-82  0.5000E+02
 -58.687  0.2603E-82  0.5000E+02
 -58.657  0.2603E-82  0.5000E+02
 -58.627  0.2603E-82  0.5000E+02
 -58.597  0.2603E-82  0.5000E+02
 -58.567  0.2603E-82  0.5000E+02
 -58.537  0.2603E-82  0.5000E+02
 -58.507  0.2603E-82  0.5000E+02
 -58.477  0.2603E-82  0.5000E+02
 -58.447  0.2603E-82  0.5000E+02
 -58.417  0.2603E-82  0.5000E+02
 -58.387  0.2603E-82  0.5000E+02
 -58.357  0.2603E-82  0.5000E+02
 -58.327  0.2603E-82  0.5000E+02
 -58.297  0.2603E-82  0.5000E+02
 -58.267  0.2603E-82  0.5000E+02
 -58.237  0.2603E-82  0.5000E+02
 -58.207  0.2603E-82  0.5000E+02
 -58.177  0.2603E-82  0.5000E+02
 -58.147  0.2603E-82  0.5000E+02
 -58.117  0.2603E-82  0.5000E+02
 -58.087  0.2603E-82  0.5000E+02
 -58.057  0.2603E-82  0.5000E+02
 -58.027  0.2603E-82  0.5000E+02
 -57.997  0.2603E-82  0.5000E+02
 -57.967  0.2603E-82  0.5000E+02
 -57.937  0.2603E-82  0.5000E+02
 -57.907  0.2603E-82  0.5000E+02
 -57.877  0.2603E-82  0.5000E+02
 -57.847  0.2603E-82  0.5000E+02
 -57.817  0.2603E-82  0.5000E+02
 -57.787  0.2603E-82  0.5000E+02
 -57.757  0.2603E-82  0.5000E+02
 -57.727  0.2603E-82  0.5000E+02
 -57.697  0.2603E-82  0.5000E+02
 -57.667  0.2603E-82  0.5000E+02
 -57.637  0.2603E-82  0.5000E+02
 -57.607  0.2603E-82  0.5000E+02
 -57.577  0.2603E-82  0.5000E+02
 -57.547  0.2603E-82  0.5000E+02
 -57.517  0.2603E-82  0.5000E+02
 -57.487  0.2603E-82  0.5000E+02
 -57.457  0.2603E-82  0.5000E+02
 -57.427  0.2603E-82  0.5000E+02
 -57.397  0.2603E-82  0.5000E+02
 -57.367  0.2603E-82  0.5000E+02
 -57.337  0.2603E-82  0.5000E+02
 -57.307  0.2603E-82  0.5000E+02
 -57.277  0.2603E-82  0.5000E+02
 -57.247  0.2603E-82  0.5000E+02
 -57.217  0.2603E-82  0.5000E+02
 -57.187  0.2603E-82  0.5000E+02
 -57.157  0.2603E-82  0.5000E+02
 -57.127  0.2603E-82  0.5000E+02
 -57.097  0.2603E-82  0.5000E+02
 -57.067  0.2603E-82  0.5000E+02
 -57.037  0.2603E-82  0.5000E+02
 -57.007  0.2603E-82  0.5000E+02
 -56.977  0.2603E-82  0.5000E+02
 -56.947  0.2603E-82  0.5000E+02
 -56.917  0.2603E-82  0.5000E+02
 -56.887  0.2603E-82  0.5000E+02
 -56.857  0.2603E-82  0.5000E+02
 -56.827  0.2603E-82  0.5000E+02
 -56.797  0.2603E-82  0.5000E+02
 -56.767  0.2603E-82  0.5000E+02
 -56.737  0.2603E-82  0.5000E+02
 -56.707  0.2603E-82  0.5000E+02
 -56.677  0.2603E-82  0.5000E+02
 -56.647  0.2603E-82  0.5000E+02
 -56.617  0.2603E-82  0.5000E+02
 -56.587  0.2603E-82  0.5000E+02
 -56.557  0.2603E-82  0.5000E+02
 -56.527  0.2603E-82  0.5000E+02
 -56.497  0.2603E-82  0.5000E+02
 -56.467  0.2603E-82  0.5000E+02
 -56.437  0.2603E-82  0.5000E+02
 -56.407  0.2603E-82  0.5000E+02
 -56.377  0.2603E-82  0.5000E+02
 -56.347  0.2603E-82  0.5000E+02
 -56.317  0.2603E-82  0.5000E+02
 -56.287  0.2603E-82  0.5000E+02
 -56.257  0.2603E-82  0.5000E+02
 -56.227  0.2603E-82  0.5000E+02
 -56.197  0.2603E-82  0.5000E+02
 -56.167  0.2603E-82  0.5000E+02
 -56.137  0.2603E-82  0.5000E+02
 -56.107  0.2603E-82  0.5000E+02
 -56.077  0.2603E-82  0.5000E+02
 -56.047  0.2603E-82  0.5000E+02
 -56.017  0.2603E-82  0.5000E+02
 -55.987  0.2603E-82  0.5000E+02
 -55.957  0.2603E-82  0.5000E+02
 -55.927  0.2603E-82  0.5000E+02
 -55.897  0.2603E-82  0.5000E+02
 -55.867  0.2603E-82  0.5000E+02
 -55.837  0.2603E-82  0.5000E+02
 -55.807  0.2603E-82  0.5000E+02
 -55.777  0.2603E-82  0.5000E+02
 -55.747  0.2603E-82  0.5000E+02
 -55.717  0.2603E-82  0.5000E+02
 -55.687  0.2603E-82  0.5000E+02
 -55.657  0.2603E-82  0.5000E+02
 -55.627  0.2603E-82  0.5000E+02
 -55.597  0.2603E-82  0.5000E+02
 -55.567  0.2603E-82  0.5000E+02
 -55.537  0.2603E-82  0.5000E+02
 -55.507  0.2603E-82  0.5000E+02
 -55.477  0.2603E-82  0.5000E+02
 -55.447  0.2603E-82  0.5000E+02
 -55.417  0.2603E-82  0.5000E+02
 -55.387  0.2603E-82  0.5000E+02
 -55.357  0.2603E-82  0.5000E+02
 -55.327  0.2603E-82  0.5000E+02
 -55.297  0.2603E-82  0.5000E+02
 -55.267  0.2603E-82  0.5000E+02
 -55.237  0.2603E-82  0.5000E+02
 -55.207  0.2603E-82  0.5000E+02
 -55.177  0.2603E-82  0.5000E+02
 -55.147  0.2603E-82  0.5000E+02
 -55.117  0.2603E-82  0.5000E+02
 -55.087  0.2603E-82  0.5000E+02
 -55.057  0.2603E-82  0.5000E+02
 -55.027  0.2603E-82  0.5000E+02
 -54.997  0.2603E-82  0.5000E+02
 -54.967  0.2603E-82  0.5000E+02
 -54.937  0.2603E-82  0.5000E+02
 -54.907  0.2603E-82  0.5000E+02
 -54.877  0.2603E-82  0.5000E+02
 -54.847  0.2603E-82  0.5000E+02
 -54.817  0.2603E-82  0.5000E+02
 -54.787  0.2603E-82  0.5000E+02
 -54.757  0.2603E-82  0.5000E+02
 -54.727  0.2603E-82  0.5000E+02
 -54.697  0.2603E-82  0.5000E+02
 -54.667  0.2603E-82  0.5000E+02
 -54.637  0.2603E-82  0.5000E+02
 -54.607  0.2603E-82  0.5000E+02
 -54.577  0.2603E-82  0.5000E+02
 -54.547  0.2603E-82  0.5000E+02
 -54.517  0.2603E-82  0.5000E+02
 -54.487  0.2603E-82  0.5000E+02
 -54.457  0.2603E-82  0.5000E+02
 -54.427  0.2603E-82  0.5000E+02
 -54.397  0.2603E-82  0.5000E+02
 -54.367  0.2603E-82  0.5000E+02
 -54.337  0.2603E-82  0.5000E+02
 -54.307  0.2603E-82  0.5000E+02
 -54.277  0.2603E-82  0.5000E+02
 -54.247  0.2603E-82  0.5000E+02
 -54.217  0.2603E-82  0.5000E+02
 -54.187  0.2603E-82  0.5000E+02
 -54.157  0.2603E-82  0.5000E+02
 -54.127  0.2603E-82  0.5000E+02
 -54.097  0.2603E-82  0.5000E+02
 -54.067  0.2603E-82  0.5000E+02
 -54.037  0.2603E-82  0.5000E+02
 -54.007  0.2603E-82  0.5000E+02
 -53.977  0.2603E-82  0.5000E+02
 -53.947  0.2603E-82  0.5000E+02
 -53.917  0.2603E-82  0.5000E+02
 -53.887  0.2603E-82  0.5000E+02
 -53.857  0.2603E-82  0.5000E+02
 -53.827  0.2603E-82  0.5000E+02
 -53.797  0.2603E-82  0.5000E+02
 -53.767  0.2603E-82  0.5000E+02
 -53.737  0.2603E-82  0.5000E+02
 -53.707  0.2603E-82  0.5000E+02
 -53.677  0.2603E-82  0.5000E+02
 -53.647  0.2603E-82  0.5000E+02
 -53.617  0.2603E-82  0.5000E+02
 -53.587  0.2603E-82  0.5000E+02
 -53.557  0.2603E-82  0.5000E+02
 -53.527  0.2603E-82  0.5000E+02
 -53.497  0.2603E-82  0.5000E+02
 -53.467  0.2603E-82  0.5000E+02
 -53.437  0.2603E-82  0.5000E+02
 -53.407  0.2603E-82  0.5000E+02
 -53.377  0.2603E-82  0.5000E+02
 -53.347  0.2603E-82  0.5000E+02
 -53.317  0.2603E-82  0.5000E+02
 -53.287  0.2603E-82  0.5000E+02
 -53.257  0.2603E-82  0.5000E+02
 -53.227  0.2603E-82  0.5000E+02
 -53.197  0.2603E-82  0.5000E+02
 -53.167  0.2603E-82  0.5000E+02
 -53.137  0.2603E-82  0.5000E+02
 -53.107  0.2603E-82  0.5000E+02
 -53.077  0.2603E-82  0.5000E+02
 -53.047  0.2603E-82  0.5000E+02
 -53.017  0.2603E-82  0.5000E+02
 -52.987  0.2603E-82  0.5000E+02
 -52.957  0.2603E-82  0.5000E+02
 -52.927  0.2603E-82  0.5000E+02
 -52.897  0.2603E-82  0.5000E+02
 -52.867  0.2603E-82  0.5000E+02
 -52.837  0.2603E-82  0.5000E+02
 -52.807  0.2603E-82  0.5000E+02
 -52.777  0.2603E-82  0.5000E+02
 -52.747  0.2603E-82  0.5000E+02
 -52.717  0.2603E-82  0.5000E+02
 -52.687  0.2603E-82  0.5000E+02
 -52.657  0.2603E-82  0.5000E+02
 -52.627  0.2603E-82  0.5000E+02
 -52.597  0.2603E-82  0.5000E+02
 -52.567  0.2603E-82  0.5000E+02
 -52.537  0.2603E-82  0.5000E+02
 -52.507  0.2603E-82  0.5000E+02
 -52.477  0.2603E-82  0.5000E+02
 -52.447  0.2603E-82  0.5000E+02
 -52.417  0.2603E-82  0.5000E+02
 -52.387  0.2603E-82  0.5000E+02
 -52.357  0.2603E-82  0.5000E+02
 -52.327  0.2603E-82  0.5000E+02
 -52.297  0.2603E-82  0.5000E+02
 -52.267  0.2603E-82  0.5000E+02
 -52.237  0.2603E-82  0.5000E+02
 -52.207  0.2603E-82  0.5000E+02
 -52.177  0.2603E-82  0.5000E+02
 -52.147  0.2603E-82  0.5000E+02
 -52.117  0.2603E-82  0.5000E+02
 -52.087  0.2603E-82  0.5000E+02
 -52.057  0.2603E-82  0.5000E+02
 -52.027  0.2603E-82  0.5000E+02
 -51.997  0.2603E-82  0.5000E+02
 -51.967  0.2603E-82  0.5000E+02
 -51.937  0.2603E-82  0.5000E+02
 -51.907  0.2603E-82  0.5000E+02
 -51.877  0.2603E-82  0.5000E+02
 -51.847  0.2603E-82  0.5000E+02
 -51.817  0.2603E-82  0.5000E+02
 -51.787  0.2603E-82  0.5000E+02
 -51.757  0.2603E-82  0.5000E+02
 -51.727  0.2603E-82  0.5000E+02
 -51.697  0.2603E-82  0.5000E+02
 -51.667  0.2603E-82  0.5000E+02
 -51.637  0.2603E-82  0.5000E+02
 -51.607  0.2603E-82  0.5000E+02
 -51.577  0.2603E-82  0.5000E+02
 -51.547  0.2603E-82  0.5000E+02
 -51.517  0.2603E-82  0.5000E+02
 -51.487  0.2603E-82  0.5000E+02
 -51.457  0.2603E-82  0.5000E+02
 -51.427  0.2603E-82  0.5000E+02
 -51.397  0.2603E-82  0.5000E+02
 -51.367  0.2603E-82  0.5000E+02
 -51.337  0.2603E-82  0.5000E+02
 -51.307  0.2603E-82  0.5000E+02
 -51.277  0.2603E-82  0.5000E+02
 -51.247  0.2603E-82  0.5000E+02
 -51.217  0.2603E-82  0.5000E+02
 -51.187  0.2603E-82  0.5000E+02
 -51.157  0.2603E-82  0.5000E+02
 -51.127  0.2603E-82  0.5000E+02
 -51.097  0.2603E-82  0.5000E+02
 -51.067  0.2603E-82  0.5000E+02
 -51.037  0.2603E-82  0.5000E+02
 -51.007  0.2603E-82  0.5000E+02
 -50.977  0.2603E-82  0.5000E+02
 -50.947  0.2603E-82  0.5000E+02
 -50.917  0.2603E-82  0.5000E+02
 -50.887  0.2603E-82  0.5000E+02
 -50.857  0.2603E-82  0.5000E+02
 -50.827  0.2603E-82  0.5000E+02
 -50.797  0.2603E-82  0.5000E+02
 -50.767  0.2603E-82  0.5000E+02
 -50.737  0.2603E-82  0.5000E+02
 -50.707  0.2603E-82  0.5000E+02
 -50.677  0.2603E-82  0.5000E+02
 -50.647  0.2603E-82  0.5000E+02
 -50.617  0.2603E-82  0.5000E+02
 -50.587  0.2603E-82  0.5000E+02
 -50.557  0.2603E-82  0.5000E+02
 -50.527  0.2603E-82  0.5000E+02
 -50.497  0.2603E-82  0.5000E+02
 -50.467  0.2603E-82  0.5000E+02
 -50.437  0.2603E-82  0.5000E+02
 -50.407  0.2603E-82  0.5000E+02
 -50.377  0.2603E-82  0.5000E+02
 -50.347  0.2603E-82  0.5000E+02
 -50.317  0.2603E-82  0.5000E+02
 -50.287  0.2603E-82  0.5000E+02
 -50.257  0.2603E-82  0.5000E+02
 -50.227  0.2603E-82  0.5000E+02
 -50.197  0.2603E-82  0.5000E+02
 -50.167  0.2603E-82  0.5000E+02
 -50.137  0.2603E-82  0.5000E+02
 -50.107  0.2603E-82  0.5000E+02
 -50.077  0.2603E-82  0.5000E+02
 -50.047  0.2603E-82  0.5000E+02
 -50.017  0.2603E-82  0.5000E+02
 -49.987  0.2603E-82  0.5000E+02
 -49.957  0.2603E-82  0.5000E+02
 -49.927  0.2603E-82  0.5000E+02
 -49.897  0.2603E-82  0.5000E+02
 -49.867  0.2603E-82  0.5000E+02
 -49.837  0.2603E-82  0.5000E+02
 -49.807  0.2603E-82  0.5000E+02
 -49.777  0.2603E-82  0.5000E+02
 -49.747  0.2603E-82  0.5000E+02
 -49.717  0.2603E-82  0.5000E+02
 -49.687  0.2603E-82  0.5000E+02
 -49.657  0.2603E-82  0.5000E+02
 -49.627  0.2603E-82  0.5000E+02
 -49.597  0.2603E-82  0.5000E+02
 -49.567  0.2603E-82  0.5000E+02
 -49.537  0.2603E-82  0.5000E+02
 -49.507  0.2603E-82  0.5000E+02
 -49.477  0.2603E-82  0.5000E+02
 -49.447  0.2603E-82  0.5000E+02
 -49.417  0.2603E-82  0.5000E+02
 -49.387  0.2603E-82  0.5000E+02
 -49.357  0.2603E-82  0.5000E+02
 -49.327  0.2603E-82  0.5000E+02
 -49.297  0.2603E-82  0.5000E+02
 -49.267  0.2603E-82  0.5000E+02
 -49.237  0.2603E-82  0.5000E+02
 -49.207  0.2603E-82  0.5000E+02
 -49.177  0.2603E-82  0.5000E+02
 -49.147  0.2603E-82  0.5000E+02
 -49.117  0.2603E-82  0.5000E+02
 -49.087  0.2603E-82  0.5000E+02
 -49.057  0.2603E-82  0.5000E+02
 -49.027  0.2603E-82  0.5000E+02
 -48.997  0.2603E-82  0.5000E+02
 -48.967  0.2603E-82  0.5000E+02
 -48.937  0.2603E-82  0.5000E+02
 -48.907  0.2603E-82  0.5000E+02
 -48.877  0.2603E-82  0.5000E+02
 -48.847  0.2603E-82  0.5000E+02
 -48.817  0.2603E-82  0.5000E+02
 -48.787  0.2603E-82  0.5000E+02
 -48.757  0.2603E-82  0.5000E+02
 -48.727  0.2603E-82  0.5000E+02
 -48.697  0.2603E-82  0.5000E+02
 -48.667  0.2603E-82  0.5000E+02
 -48.637  0.2603E-82  0.5000E+02
 -48.607  0.2603E-82  0.5000E+02
 -48.577  0.2603E-82  0.5000E+02
 -48.547  0.2603E-82  0.5000E+02
 -48.517  0.2603E-82  0.5000E+02
 -48.487  0.2603E-82  0.5000E+02
 -48.457  0.2603E-82  0.5000E+02
 -48.427  0.2603E-82  0.5000E+02
 -48.397  0.2603E-82  0.5000E+02
 -48.367  0.2603E-82  0.5000E+02
 -48.337  0.2603E-82  0.5000E+02
 -48.307  0.2603E-82  0.5000E+02
 -48.277  0.2603E-82  0.5000E+02
 -48.247  0.2603E-82  0.5000E+02
 -48.217  0.2603E-82  0.5000E+02
 -48.187  0.2603E-82  0.5000E+02
 -48.157  0.2603E-82  0.5000E+02
 -48.127  0.2603E-82  0.5000E+02
 -48.097  0.2603E-82  0.5000E+02
 -48.067  0.2603E-82  0.5000E+02
 -48.037  0.2603E-82  0.5000E+02
 -48.007  0.2603E-82  0.5000E+02
 -47.977  0.2603E-82  0.5000E+02
 -47.947  0.2603E-82  0.5000E+02
 -47.917  0.2603E-82  0.5000E+02
 -47.887  0.2603E-82  0.5000E+02
 -47.857  0.2603E-82  0.5000E+02
 -47.827  0.2603E-82  0.5000E+02
 -47.797  0.2603E-82  0.5000E+02
 -47.767  0.2603E-82  0.5000E+02
 -47.737  0.2603E-82  0.5000E+02
 -47.707  0.2603E-82  0.5000E+02
 -47.677  0.2603E-82  0.5000E+02
 -47.647  0.2603E-82  0.5000E+02
 -47.617  0.2603E-82  0.5000E+02
 -47.587  0.2603E-82  0.5000E+02
 -47.557  0.2603E-82  0.5000E+02
 -47.527  0.2603E-82  0.5000E+02
 -47.497  0.2603E-82  0.5000E+02
 -47.467  0.2603E-82  0.5000E+02
 -47.437  0.2603E-82  0.5000E+02
 -47.407  0.2603E-82  0.5000E+02
 -47.377  0.2603E-82  0.5000E+02
 -47.347  0.2603E-82  0.5000E+02
 -47.317  0.2603E-82  0.5000E+02
 -47.287  0.2603E-82  0.5000E+02
 -47.257  0.2603E-82  0.5000E+02
 -47.227  0.2603E-82  0.5000E+02
 -47.197  0.2603E-82  0.5000E+02
 -47.167  0.2603E-82  0.5000E+02
 -47.137  0.2603E-82  0.5000E+02
 -47.107  0.2603E-82  0.5000E+02
 -47.077  0.2603E-82  0.5000E+02
 -47.047  0.2603E-82  0.5000E+02
 -47.017  0.2603E-82  0.5000E+02
 -46.987  0.2603E-82  0.5000E+02
 -46.957  0.2603E-82  0.5000E+02
 -46.927  0.2603E-82  0.5000E+02
 -46.897  0.2603E-82  0.5000E+02
 -46.867  0.2603E-82  0.5000E+02
 -46.837  0.2603E-82  0.5000E+02
 -46.807  0.2603E-82  0.5000E+02
 -46.777  0.2603E-82  0.5000E+02
 -46.747  0.2603E-82  0.5000E+02
 -46.717  0.2603E-82  0.5000E+02
 -46.687  0.2603E-82  0.5000E+02
 -46.657  0.2603E-82  0.5000E+02
 -46.627  0.2603E-82  0.5000E+02
 -46.597  0.2603E-82  0.5000E+02
 -46.567  0.2603E-82  0.5000E+02
 -46.537  0.2603E-82  0.5000E+02
 -46.507  0.2603E-82  0.5000E+02
 -46.477  0.2603E-82  0.5000E+02
 -46.447  0.2603E-82  0.5000E+02
 -46.417  0.2603E-82  0.5000E+02
 -46.387  0.2603E-82  0.5000E+02
 -46.357  0.2603E-82  0.5000E+02
 -46.327  0.2603E-82  0.5000E+02
 -46.297  0.2603E-82  0.5000E+02
 -46.267  0.2603E-82  0.5000E+02
 -46.237  0.2603E-82  0.5000E+02
 -46.207  0.2603E-82  0.5000E+02
 -46.177  0.2603E-82  0.5000E+02
 -46.147  0.2603E-82  0.5000E+02
 -46.117  0.2603E-82  0.5000E+02
 -46.087  0.2603E-82  0.5000E+02
 -46.057  0.2603E-82  0.5000E+02
 -46.027  0.2603E-82  0.5000E+02
 -45.997  0.2603E-82  0.5000E+02
 -45.967  0.2603E-82  0.5000E+02
 -45.937  0.2603E-82  0.5000E+02
 -45.907  0.2603E-82  0.5000E+02
 -45.877  0.2603E-82  0.5000E+02
 -45.847  0.2603E-82  0.5000E+02
 -45.817  0.2603E-82  0.5000E+02
 -45.787  0.2603E-82  0.5000E+02
 -45.757  0.2603E-82  0.5000E+02
 -45.727  0.2603E-82  0.5000E+02
 -45.697  0.2603E-82  0.5000E+02
 -45.667  0.2603E-82  0.5000E+02
 -45.637  0.2603E-82  0.5000E+02
 -45.607  0.2603E-82  0.5000E+02
 -45.577  0.2603E-82  0.5000E+02
 -45.547  0.2603E-82  0.5000E+02
 -45.517  0.2603E-82  0.5000E+02
 -45.487  0.2603E-82  0.5000E+02
 -45.457  0.2603E-82  0.5000E+02
 -45.427  0.2603E-82  0.5000E+02
 -45.397  0.2603E-82  0.5000E+02
 -45.367  0.2603E-82  0.5000E+02
 -45.337  0.2603E-82  0.5000E+02
 -45.307  0.2603E-82  0.5000E+02
 -45.277  0.2603E-82  0.5000E+02
 -45.247  0.2603E-82  0.5000E+02
 -45.217  0.2603E-82  0.5000E+02
 -45.187  0.2603E-82  0.5000E+02
 -45.157  0.2603E-82  0.5000E+02
 -45.127  0.2603E-82  0.5000E+02
 -45.097  0.2603E-82  0.5000E+02
 -45.067  0.2603E-82  0.5000E+02
 -45.037  0.2603E-82  0.5000E+02
 -45.007  0.2603E-82  0.5000E+02
 -44.977  0.2603E-82  0.5000E+02
 -44.947  0.2603E-82  0.5000E+02
 -44.917  0.2603E-82  0.5000E+02
 -44.887  0.2603E-82  0.5000E+02
 -44.857  0.2603E-82  0.5000E+02
 -44.827  0.2603E-82  0.5000E+02
 -44.797  0.2603E-82  0.5000E+02
 -44.767  0.2603E-82  0.5000E+02
 -44.737  0.2603E-82  0.5000E+02
 -44.707  0.2603E-82  0.5000E+02
 -44.677  0.2603E-82  0.5000E+02
 -44.647  0.2603E-82  0.5000E+02
 -44.617  0.2603E-82  0.5000E+02
 -44.587  0.2603E-82  0.5000E+02
 -44.557  0.2603E-82  0.5000E+02
 -44.527  0.2603E-82  0.5000E+02
 -44.497  0.2603E-82  0.5000E+02
 -44.467  0.2603E-82  0.5000E+02
 -44.437  0.2603E-82  0.5000E+02
 -44.407  0.2603E-82  0.5000E+02
 -44.377  0.2603E-82  0.5000E+02
 -44.347  0.2603E-82  0.5000E+02
 -44.317  0.2603E-82  0.5000E+02
 -44.287  0.2603E-82  0.5000E+02
 -44.257  0.2603E-82  0.5000E+02
 -44.227  0.2603E-82  0.5000E+02
 -44.197  0.2603E-82  0.5000E+02
 -44.167  0.2603E-82  0.5000E+02
 -44.137  0.2603E-82  0.5000E+02
 -44.107  0.2603E-82  0.5000E+02
 -44.077  0.2603E-82  0.5000E+02
 -44.047  0.2603E-82  0.5000E+02
 -44.017  0.2603E-82  0.5000E+02
 -43.987  0.2603E-82  0.5000E+02
 -43.957  0.2603E-82  0.5000E+02
 -43.927  0.2603E-82  0.5000E+02
 -43.897  0.2603E-82  0.5000E+02
 -43.867  0.2603E-82  0.5000E+02
 -43.837  0.2603E-82  0.5000E+02
 -43.807  0.2603E-82  0.5000E+02
 -43.777  0.2603E-82  0.5000E+02
 -43.747  0.2603E-82  0.5000E+02
 -43.717  0.2603E-82  0.5000E+02
 -43.687  0.2603E-82  0.5000E+02
 -43.657  0.2603E-82  0.5000E+02
 -43.627  0.2603E-82  0.5000E+02
 -43.597  0.2603E-82  0.5000E+02
 -43.567  0.2603E-82  0.5000E+02
 -43.537  0.2603E-82  0.5000E+02
 -43.507  0.2603E-82  0.5000E+02
 -43.477  0.2603E-82  0.5000E+02
 -43.447  0.2603E-82  0.5000E+02
 -43.417  0.2603E-82  0.5000E+02
 -43.387  0.2603E-82  0.5000E+02
 -43.357  0.2603E-82  0.5000E+02
 -43.327  0.2603E-82  0.5000E+02
 -43.297  0.2603E-82  0.5000E+02
 -43.267  0.2603E-82  0.5000E+02
 -43.237  0.2603E-82  0.5000E+02
 -43.207  0.2603E-82  0.5000E+02
 -43.177  0.2603E-82  0.5000E+02
 -43.147  0.2603E-82  0.5000E+02
 -43.117  0.2603E-82  0.5000E+02
 -43.087  0.2603E-82  0.5000E+02
 -43.057  0.2603E-82  0.5000E+02
 -43.027  0.2603E-82  0.5000E+02
 -42.997  0.2603E-82  0.5000E+02
 -42.967  0.2603E-82  0.5000E+02
 -42.937  0.2603E-82  0.5000E+02
 -42.907  0.2603E-82  0.5000E+02
 -42.877  0.2603E-82  0.5000E+02
 -42.847  0.2603E-82  0.5000E+02
 -42.817  0.2603E-82  0.5000E+02
 -42.787  0.2603E-82  0.5000E+02
 -42.757  0.2603E-82  0.5000E+02
 -42.727  0.2603E-82  0.5000E+02
 -42.697  0.2603E-82  0.5000E+02
 -42.667  0.2603E-82  0.5000E+02
 -42.637  0.2603E-82  0.5000E+02
 -42.607  0.2603E-82  0.5000E+02
 -42.577  0.2603E-82  0.5000E+02
 -42.547  0.2603E-82  0.5000E+02
 -42.517  0.2603E-82  0.5000E+02
 -42.487  0.2603E-82  0.5000E+02
 -42.457  0.2603E-82  0.5000E+02
 -42.427  0.2603E-82  0.5000E+02
 -42.397  0.2603E-82  0.5000E+02
 -42.367  0.2603E-82  0.5000E+02
 -42.337  0.2603E-82  0.5000E+02
 -42.307  0.2603E-82  0.5000E+02
 -42.277  0.2603E-82  0.5000E+02
 -42.247  0.2603E-82  0.5000E+02
 -42.217  0.2603E-82  0.5000E+02
 -42.187  0.2603E-82  0.5000E+02
 -42.157  0.2603E-82  0.5000E+02
 -42.127  0.2603E-82  0.5000E+02
 -42.097  0.2603E-82  0.5000E+02
 -42.067  0.2603E-82  0.5000E+02
 -42.037  0.2603E-82  0.5000E+02
 -42.007  0.2603E-82  0.5000E+02
 -41.977  0.2603E-82  0.5000E+02
 -41.947  0.2603E-82  0.5000E+02
 -41.917  0.2603E-82  0.5000E+02
 -41.887  0.2603E-82  0.5000E+02
 -41.857  0.2603E-82  0.5000E+02
 -41.827  0.2603E-82  0.5000E+02
 -41.797  0.2603E-82  0.5000E+02
 -41.767  0.2603E-82  0.5000E+02
 -41.737  0.2603E-82  0.5000E+02
 -41.707  0.2603E-82  0.5000E+02
 -41.677  0.2603E-82  0.5000E+02
 -41.647  0.2603E-82  0.5000E+02
 -41.617  0.2603E-82  0.5000E+02
 -41.587  0.2603E-82  0.5000E+02
 -41.557  0.2603E-82  0.5000E+02
 -41.527  0.2603E-82  0.5000E+02
 -41.497  0.2603E-82  0.5000E+02
 -41.467  0.2603E-82  0.5000E+02
 -41.437  0.2603E-82  0.5000E+02
 -41.407  0.2603E-82  0.5000E+02
 -41.377  0.2603E-82  0.5000E+02
 -41.347  0.2603E-82  0.5000E+02
 -41.317  0.2603E-82  0.5000E+02
 -41.287  0.2603E-82  0.5000E+02
 -41.257  0.2603E-82  0.5000E+02
 -41.227  0.2603E-82  0.5000E+02
 -41.197  0.2603E-82  0.5000E+02
 -41.167  0.2603E-82  0.5000E+02
 -41.137  0.2603E-82  0.5000E+02
 -41.107  0.2603E-82  0.5000E+02
 -41.077  0.2603E-82  0.5000E+02
 -41.047  0.2603E-82  0.5000E+02
 -41.017  0.2603E-82  0.5000E+02
 -40.987  0.2603E-82  0.5000E+02
 -40.957  0.2603E-82  0.5000E+02
 -40.927  0.2603E-82  0.5000E+02
 -40.897  0.2603E-82  0.5000E+02
 -40.867  0.2603E-82  0.5000E+02
 -40.837  0.2603E-82  0.5000E+02
 -40.807  0.2603E-82  0.5000E+02
 -40.777  0.2603E-82  0.5000E+02
 -40.747  0.2603E-82  0.5000E+02
 -40.717  0.2603E-82  0.5000E+02
 -40.687  0.2603E-82  0.5000E+02
 -40.657  0.2603E-82  0.5000E+02
 -40.627  0.2603E-82  0.5000E+02
 -40.597  0.2603E-82  0.5000E+02
 -40.567  0.2603E-82  0.5000E+02
 -40.537  0.2603E-82  0.5000E+02
 -40.507  0.2603E-82  0.5000E+02
 -40.477  0.2603E-82  0.5000E+02
 -40.447  0.2603E-82  0.5000E+02
 -40.417  0.2603E-82  0.5000E+02
 -40.387  0.2603E-82  0.5000E+02
 -40.357  0.2603E-82  0.5000E+02
 -40.327  0.2603E-82  0.5000E+02
 -40.297  0.2603E-82  0.5000E+02
 -40.267  0.2603E-82  0.5000E+02
 -40.237  0.2603E-82  0.5000E+02
 -40.207  0.2603E-82  0.5000E+02
 -40.177  0.2603E-82  0.5000E+02
 -40.147  0.2603E-82  0.5000E+02
 -40.117  0.2603E-82  0.5000E+02
 -40.087  0.2603E-82  0.5000E+02
 -40.057  0.2603E-82  0.5000E+02
 -40.027  0.2603E-82  0.5000E+02
 -39.997  0.2603E-82  0.5000E+02
 -39.967  0.2603E-82  0.5000E+02
 -39.937  0.2603E-82  0.5000E+02
 -39.907  0.2603E-82  0.5000E+02
 -39.877  0.2603E-82  0.5000E+02
 -39.847  0.2603E-82  0.5000E+02
 -39.817  0.2603E-82  0.5000E+02
 -39.787  0.2603E-82  0.5000E+02
 -39.757  0.2603E-82  0.5000E+02
 -39.727  0.2603E-82  0.5000E+02
 -39.697  0.2603E-82  0.5000E+02
 -39.667  0.2603E-82  0.5000E+02
 -39.637  0.2603E-82  0.5000E+02
 -39.607  0.2603E-82  0.5000E+02
 -39.577  0.2603E-82  0.5000E+02
 -39.547  0.2603E-82  0.5000E+02
 -39.517  0.2603E-82  0.5000E+02
 -39.487  0.2603E-82  0.5000E+02
 -39.457  0.2603E-82  0.5000E+02
 -39.427  0.2603E-82  0.5000E+02
 -39.397  0.2603E-82  0.5000E+02
 -39.367  0.2603E-82  0.5000E+02
 -39.337  0.2603E-82  0.5000E+02
 -39.307  0.2603E-82  0.5000E+02
 -39.277  0.2603E-82  0.5000E+02
 -39.247  0.2603E-82  0.5000E+02
 -39.217  0.2603E-82  0.5000E+02
 -39.187  0.2603E-82  0.5000E+02
 -39.157  0.2603E-82  0.5000E+02
 -39.127  0.2603E-82  0.5000E+02
 -39.097  0.2603E-82  0.5000E+02
 -39.067  0.2603E-82  0.5000E+02
 -39.037  0.2603E-82  0.5000E+02
 -39.007  0.2603E-82  0.5000E+02
 -38.977  0.2603E-82  0.5000E+02
 -38.947  0.2603E-82  0.5000E+02
 -38.917  0.2603E-82  0.5000E+02
 -38.887  0.2603E-82  0.5000E+02
 -38.857  0.2603E-82  0.5000E+02
 -38.827  0.2603E-82  0.5000E+02
 -38.797  0.2603E-82  0.5000E+02
 -38.767  0.2603E-82  0.5000E+02
 -38.737  0.2603E-82  0.5000E+02
 -38.707  0.2603E-82  0.5000E+02
 -38.677  0.2603E-82  0.5000E+02
 -38.647  0.2603E-82  0.5000E+02
 -38.617  0.2603E-82  0.5000E+02
 -38.587  0.2603E-82  0.5000E+02
 -38.557  0.2603E-82  0.5000E+02
 -38.527  0.2603E-82  0.5000E+02
 -38.497  0.2603E-82  0.5000E+02
 -38.467  0.2603E-82  0.5000E+02
 -38.437  0.2603E-82  0.5000E+02
 -38.407  0.2603E-82  0.5000E+02
 -38.377  0.2603E-82  0.5000E+02
 -38.347  0.2603E-82  0.5000E+02
 -38.317  0.2603E-82  0.5000E+02
 -38.287  0.2603E-82  0.5000E+02
 -38.257  0.2603E-82  0.5000E+02
 -38.227  0.2603E-82  0.5000E+02
 -38.197  0.2603E-82  0.5000E+02
 -38.167  0.2603E-82  0.5000E+02
 -38.137  0.2603E-82  0.5000E+02
 -38.107  0.2603E-82  0.5000E+02
 -38.077  0.2603E-82  0.5000E+02
 -38.047  0.2603E-82  0.5000E+02
 -38.017  0.1389E-75  0.5000E+02
 -37.987  0.1897E-64  0.5000E+02
 -37.957  0.3531E-54  0.5000E+02
 -37.927  0.8965E-45  0.5000E+02
 -37.897  0.3111E-36  0.5000E+02
 -37.867  0.1480E-28  0.5000E+02
 -37.837  0.9676E-22  0.5000E+02
 -37.807  0.8744E-16  0.5000E+02
 -37.777  0.1100E-10  0.5000E+02
 -37.747  0.1948E-06  0.5000E+02
 -37.717  0.4963E-03  0.5000E+02
 -37.687  0.1901E+00  0.5000E+02
 -37.657  0.1207E+02  0.5037E+02
 -37.627  0.1521E+03  0.5493E+02
 -37.597  0.4668E+03  0.6893E+02
 -37.567  0.4509E+03  0.8246E+02
 -37.537  0.2787E+03  0.9082E+02
 -37.507  0.1952E+03  0.9668E+02
 -37.477  0.9543E+02  0.9954E+02
 -37.447  0.1486E+02  0.9999E+02
 -37.417  0.4531E+00  0.1000E+03
 -37.387  0.2252E-02  0.1000E+03
 -37.357  0.1692E-05  0.1000E+03
 -37.327  0.1843E-09  0.1000E+03
 -37.297  0.2834E-14  0.1000E+03
 -37.267  0.6056E-20  0.1000E+03
 -37.237  0.1782E-26  0.1000E+03
 -37.207  0.7176E-34  0.1000E+03
 -37.177  0.3943E-42  0.1000E+03
 -37.147  0.2950E-51  0.1000E+03
 -37.117  0.3001E-61  0.1000E+03
 -37.087  0.4148E-72  0.1000E+03
 -37.057  0.2678E-82  0.1000E+03
 -37.027  0.2603E-82  0.1000E+03
 -36.997  0.2603E-82  0.1000E+03
 -36.967  0.2603E-82  0.1000E+03
 -36.937  0.2603E-82  0.1000E+03
 -36.907  0.2603E-82  0.1000E+03
 -36.877  0.2603E-82  0.1000E+03
 -36.847  0.2603E-82  0.1000E+03
 -36.817  0.2603E-82  0.1000E+03
 -36.787  0.2603E-82  0.1000E+03
 -36.757  0.2603E-82  0.1000E+03
 -36.727  0.2603E-82  0.1000E+03
 -36.697  0.2603E-82  0.1000E+03
 -36.667  0.2603E-82  0.1000E+03
 -36.637  0.2603E-82  0.1000E+03
 -36.607  0.2603E-82  0.1000E+03
 -36.577  0.2603E-82  0.1000E+03
 -36.547  0.2603E-82  0.1000E+03
 -36.517  0.2603E-82  0.1000E+03
 -36.487  0.2603E-82  0.1000E+03
 -36.457  0.2603E-82  0.1000E+03
 -36.427  0.2603E-82  0.1000E+03
 -36.397  0.2603E-82  0.1000E+03
 -36.367  0.2603E-82  0.1000E+03
 -36.337  0.2603E-82  0.1000E+03
 -36.307  0.2603E-82  0.1000E+03
 -36.277  0.2603E-82  0.1000E+03
 -36.247  0.2603E-82  0.1000E+03
 -36.217  0.2603E-82  0.1000E+03
 -36.187  0.2603E-82  0.1000E+03
 -36.157  0.2603E-82  0.1000E+03
 -36.127  0.2603E-82  0.1000E+03
 -36.097  0.2603E-82  0.1000E+03
 -36.067  0.2603E-82  0.1000E+03
 -36.037  0.2603E-82  0.1000E+03
 -36.007  0.2603E-82  0.1000E+03
 -35.977  0.2603E-82  0.1000E+03
 -35.947  0.2603E-82  0.1000E+03
 -35.917  0.2603E-82  0.1000E+03
 -35.887  0.2603E-82  0.1000E+03
 -35.857  0.2603E-82  0.1000E+03
 -35.827  0.2603E-82  0.1000E+03
 -35.797  0.2603E-82  0.1000E+03
 -35.767  0.2603E-82  0.1000E+03
 -35.737  0.2603E-82  0.1000E+03
 -35.707  0.2603E-82  0.1000E+03
 -35.677  0.2603E-82  0.1000E+03
 -35.647  0.2603E-82  0.1000E+03
 -35.617  0.2848E-76  0.1000E+03
 -35.587  0.4730E-65  0.1000E+03
 -35.557  0.1070E-54  0.1000E+03
 -35.527  0.3298E-45  0.1000E+03
 -35.497  0.1388E-36  0.1000E+03
 -35.467  0.7978E-29  0.1000E+03
 -35.437  0.6280E-22  0.1000E+03
 -35.407  0.6786E-16  0.1000E+03
 -35.377  0.1010E-10  0.1000E+03
 -35.347  0.2083E-06  0.1000E+03
 -35.317  0.6012E-03  0.1000E+03
 -35.287  0.2475E+00  0.1000E+03
 -35.257  0.1521E+02  0.1005E+03
 -35.227  0.1564E+03  0.1052E+03
 -35.197  0.3654E+03  0.1161E+03
 -35.167  0.3495E+03  0.1266E+03
 -35.137  0.2501E+03  0.1341E+03
 -35.107  0.2233E+03  0.1408E+03
 -35.077  0.3779E+03  0.1521E+03
 -35.047  0.5202E+03  0.1677E+03
 -35.017  0.5174E+03  0.1833E+03
 -34.987  0.2825E+03  0.1917E+03
 -34.957  0.1281E+03  0.1956E+03
 -34.927  0.8563E+02  0.1982E+03
 -34.897  0.5003E+02  0.1997E+03
 -34.867  0.1094E+02  0.2000E+03
 -34.837  0.5812E+00  0.2000E+03
 -34.807  0.5321E-02  0.2000E+03
 -34.777  0.7208E-05  0.2000E+03
 -34.747  0.1376E-08  0.2000E+03
 -34.717  0.3636E-13  0.2000E+03
 -34.687  0.1321E-18  0.2000E+03
 -34.657  0.6566E-25  0.2000E+03
 -34.627  0.4455E-32  0.2000E+03
 -34.597  0.4118E-40  0.2000E+03
 -34.567  0.5180E-49  0.2000E+03
 -34.537  0.8857E-59  0.2000E+03
 -34.507  0.2057E-69  0.2000E+03
 -34.477  0.6747E-81  0.2000E+03
 -34.447  0.2603E-82  0.2000E+03
 -34.417  0.2603E-82  0.2000E+03
 -34.387  0.2603E-82  0.2000E+03
 -34.357  0.2603E-82  0.2000E+03
 -34.327  0.2603E-82  0.2000E+03
 -34.297  0.2603E-82  0.2000E+03
 -34.267  0.2603E-82  0.2000E+03
 -34.237  0.2603E-82  0.2000E+03
 -34.207  0.2603E-82  0.2000E+03
 -34.177  0.2603E-82  0.2000E+03
 -34.147  0.2603E-82  0.2000E+03
 -34.117  0.2603E-82  0.2000E+03
 -34.087  0.2603E-82  0.2000E+03
 -34.057  0.2603E-82  0.2000E+03
 -34.027  0.2603E-82  0.2000E+03
 -33.997  0.2603E-82  0.2000E+03
 -33.967  0.2603E-82  0.2000E+03
 -33.937  0.2603E-82  0.2000E+03
 -33.907  0.2603E-82  0.2000E+03
 -33.877  0.2603E-82  0.2000E+03
 -33.847  0.2603E-82  0.2000E+03
 -33.817  0.2603E-82  0.2000E+03
 -33.787  0.2603E-82  0.2000E+03
 -33.757  0.2603E-82  0.2000E+03
 -33.727  0.2603E-82  0.2000E+03
 -33.697  0.2603E-82  0.2000E+03
 -33.667  0.2603E-82  0.2000E+03
 -33.637  0.2603E-82  0.2000E+03
 -33.607  0.2603E-82  0.2000E+03
 -33.577  0.2603E-82  0.2000E+03
 -33.547  0.2603E-82  0.2000E+03
 -33.517  0.2603E-82  0.2000E+03
 -33.487  0.2603E-82  0.2000E+03
 -33.457  0.2603E-82  0.2000E+03
 -33.427  0.2603E-82  0.2000E+03
 -33.397  0.2603E-82  0.2000E+03
 -33.367  0.2603E-82  0.2000E+03
 -33.337  0.2603E-82  0.2000E+03
 -33.307  0.2603E-82  0.2000E+03
 -33.277  0.2603E-82  0.2000E+03
 -33.247  0.2603E-82  0.2000E+03
 -33.217  0.2603E-82  0.2000E+03
 -33.187  0.2603E-82  0.2000E+03
 -33.157  0.2603E-82  0.2000E+03
 -33.127  0.2603E-82  0.2000E+03
 -33.097  0.2603E-82  0.2000E+03
 -33.067  0.2603E-82  0.2000E+03
 -33.037  0.2603E-82  0.2000E+03
 -33.007  0.2603E-82  0.2000E+03
 -32.977  0.2603E-82  0.2000E+03
 -32.947  0.2603E-82  0.2000E+03
 -32.917  0.2603E-82  0.2000E+03
 -32.887  0.2603E-82  0.2000E+03
 -32.857  0.2603E-82  0.2000E+03
 -32.827  0.2603E-82  0.2000E+03
 -32.797  0.2603E-82  0.2000E+03
 -32.767  0.2603E-82  0.2000E+03
 -32.737  0.2603E-82  0.2000E+03
 -32.707  0.2603E-82  0.2000E+03
 -32.677  0.2603E-82  0.2000E+03
 -32.647  0.2603E-82  0.2000E+03
 -32.617  0.2603E-82  0.2000E+03
 -32.587  0.2603E-82  0.2000E+03
 -32.557  0.2603E-82  0.2000E+03
 -32.527  0.2603E-82  0.2000E+03
 -32.497  0.2603E-82  0.2000E+03
 -32.467  0.2603E-82  0.2000E+03
 -32.437  0.2603E-82  0.2000E+03
 -32.407  0.2603E-82  0.2000E+03
 -32.377  0.2603E-82  0.2000E+03
 -32.347  0.2603E-82  0.2000E+03
 -32.317  0.2603E-82  0.2000E+03
 -32.287  0.2603E-82  0.2000E+03
 -32.257  0.2603E-82  0.2000E+03
 -32.227  0.2603E-82  0.2000E+03
 -32.197  0.2603E-82  0.2000E+03
 -32.167  0.2603E-82  0.2000E+03
 -32.137  0.2603E-82  0.2000E+03
 -32.107  0.2603E-82  0.2000E+03
 -32.077  0.2603E-82  0.2000E+03
 -32.047  0.2603E-82  0.2000E+03
 -32.017  0.2603E-82  0.2000E+03
 -31.987  0.2603E-82  0.2000E+03
 -31.957  0.2603E-82  0.2000E+03
 -31.927  0.2603E-82  0.2000E+03
 -31.897  0.2603E-82  0.2000E+03
 -31.867  0.2603E-82  0.2000E+03
 -31.837  0.2603E-82  0.2000E+03
 -31.807  0.2603E-82  0.2000E+03
 -31.777  0.2603E-82  0.2000E+03
 -31.747  0.2603E-82  0.2000E+03
 -31.717  0.2603E-82  0.2000E+03
 -31.687  0.2603E-82  0.2000E+03
 -31.657  0.2603E-82  0.2000E+03
 -31.627  0.2603E-82  0.2000E+03
 -31.597  0.2603E-82  0.2000E+03
 -31.567  0.2603E-82  0.2000E+03
 -31.537  0.2603E-82  0.2000E+03
 -31.507  0.2603E-82  0.2000E+03
 -31.477  0.2603E-82  0.2000E+03
 -31.447  0.2603E-82  0.2000E+03
 -31.417  0.2603E-82  0.2000E+03
 -31.387  0.2603E-82  0.2000E+03
 -31.357  0.2603E-82  0.2000E+03
 -31.327  0.2603E-82  0.2000E+03
 -31.297  0.2603E-82  0.2000E+03
 -31.267  0.2603E-82  0.2000E+03
 -31.237  0.2603E-82  0.2000E+03
 -31.207  0.2603E-82  0.2000E+03
 -31.177  0.2603E-82  0.2000E+03
 -31.147  0.2603E-82  0.2000E+03
 -31.117  0.2603E-82  0.2000E+03
 -31.087  0.2603E-82  0.2000E+03
 -31.057  0.2603E-82  0.2000E+03
 -31.027  0.2603E-82  0.2000E+03
 -30.997  0.2603E-82  0.2000E+03
 -30.967  0.2603E-82  0.2000E+03
 -30.937  0.2603E-82  0.2000E+03
 -30.907  0.2603E-82  0.2000E+03
 -30.877  0.2603E-82  0.2000E+03
 -30.847  0.2603E-82  0.2000E+03
 -30.817  0.2603E-82  0.2000E+03
 -30.787  0.2603E-82  0.2000E+03
 -30.757  0.2603E-82  0.2000E+03
 -30.727  0.2603E-82  0.2000E+03
 -30.697  0.2603E-82  0.2000E+03
 -30.667  0.2603E-82  0.2000E+03
 -30.637  0.2603E-82  0.2000E+03
 -30.607  0.2603E-82  0.2000E+03
 -30.577  0.2603E-82  0.2000E+03
 -30.547  0.2603E-82  0.2000E+03
 -30.517  0.2603E-82  0.2000E+03
 -30.487  0.2603E-82  0.2000E+03
 -30.457  0.2603E-82  0.2000E+03
 -30.427  0.2603E-82  0.2000E+03
 -30.397  0.2603E-82  0.2000E+03
 -30.367  0.2603E-82  0.2000E+03
 -30.337  0.2603E-82  0.2000E+03
 -30.307  0.2603E-82  0.2000E+03
 -30.277  0.2603E-82  0.2000E+03
 -30.247  0.2603E-82  0.2000E+03
 -30.217  0.2603E-82  0.2000E+03
 -30.187  0.2603E-82  0.2000E+03
 -30.157  0.2603E-82  0.2000E+03
 -30.127  0.2603E-82  0.2000E+03
 -30.097  0.2603E-82  0.2000E+03
 -30.067  0.2603E-82  0.2000E+03
 -30.037  0.2603E-82  0.2000E+03
 -30.007  0.2603E-82  0.2000E+03
 -29.977  0.2603E-82  0.2000E+03
 -29.947  0.2603E-82  0.2000E+03
 -29.917  0.2603E-82  0.2000E+03
 -29.887  0.2603E-82  0.2000E+03
 -29.857  0.2603E-82  0.2000E+03
 -29.827  0.2603E-82  0.2000E+03
 -29.797  0.2603E-82  0.2000E+03
 -29.767  0.2603E-82  0.2000E+03
 -29.737  0.2603E-82  0.2000E+03
 -29.707  0.2603E-82  0.2000E+03
 -29.677  0.2603E-82  0.2000E+03
 -29.647  0.2603E-82  0.2000E+03
 -29.617  0.2603E-82  0.2000E+03
 -29.587  0.2603E-82  0.2000E+03
 -29.557  0.2603E-82  0.2000E+03
 -29.527  0.2603E-82  0.2000E+03
 -29.497  0.2603E-82  0.2000E+03
 -29.467  0.2603E-82  0.2000E+03
 -29.437  0.2603E-82  0.2000E+03
 -29.407  0.2603E-82  0.2000E+03
 -29.377  0.2603E-82  0.2000E+03
 -29.347  0.2603E-82  0.2000E+03
 -29.317  0.2603E-82  0.2000E+03
 -29.287  0.2603E-82  0.2000E+03
 -29.257  0.2603E-82  0.2000E+03
 -29.227  0.2603E-82  0.2000E+03
 -29.197  0.2603E-82  0.2000E+03
 -29.167  0.2603E-82  0.2000E+03
 -29.137  0.2603E-82  0.2000E+03
 -29.107  0.2603E-82  0.2000E+03
 -29.077  0.2603E-82  0.2000E+03
 -29.047  0.2603E-82  0.2000E+03
 -29.017  0.2603E-82  0.2000E+03
 -28.987  0.2603E-82  0.2000E+03
 -28.957  0.2603E-82  0.2000E+03
 -28.927  0.2603E-82  0.2000E+03
 -28.897  0.2603E-82  0.2000E+03
 -28.867  0.2603E-82  0.2000E+03
 -28.837  0.2603E-82  0.2000E+03
 -28.807  0.2603E-82  0.2000E+03
 -28.777  0.2603E-82  0.2000E+03
 -28.747  0.2603E-82  0.2000E+03
 -28.717  0.2603E-82  0.2000E+03
 -28.687  0.2603E-82  0.2000E+03
 -28.657  0.2603E-82  0.2000E+03
 -28.627  0.2603E-82  0.2000E+03
 -28.597  0.2603E-82  0.2000E+03
 -28.567  0.2603E-82  0.2000E+03
 -28.537  0.2603E-82  0.2000E+03
 -28.507  0.2603E-82  0.2000E+03
 -28.477  0.2603E-82  0.2000E+03
 -28.447  0.2603E-82  0.2000E+03
 -28.417  0.2603E-82  0.2000E+03
 -28.387  0.2603E-82  0.2000E+03
 -28.357  0.2603E-82  0.2000E+03
 -28.327  0.2603E-82  0.2000E+03
 -28.297  0.2603E-82  0.2000E+03
 -28.267  0.2603E-82  0.2000E+03
 -28.237  0.2603E-82  0.2000E+03
 -28.207  0.2603E-82  0.2000E+03
 -28.177  0.2603E-82  0.2000E+03
 -28.147  0.2603E-82  0.2000E+03
 -28.117  0.2603E-82  0.2000E+03
 -28.087  0.2603E-82  0.2000E+03
 -28.057  0.2603E-82  0.2000E+03
 -28.027  0.2603E-82  0.2000E+03
 -27.997  0.2603E-82  0.2000E+03
 -27.967  0.2603E-82  0.2000E+03
 -27.937  0.2603E-82  0.2000E+03
 -27.907  0.2603E-82  0.2000E+03
 -27.877  0.2603E-82  0.2000E+03
 -27.847  0.2603E-82  0.2000E+03
 -27.817  0.2603E-82  0.2000E+03
 -27.787  0.2603E-82  0.2000E+03
 -27.757  0.2603E-82  0.2000E+03
 -27.727  0.2603E-82  0.2000E+03
 -27.697  0.2603E-82  0.2000E+03
 -27.667  0.2603E-82  0.2000E+03
 -27.637  0.2603E-82  0.2000E+03
 -27.607  0.2603E-82  0.2000E+03
 -27.577  0.2603E-82  0.2000E+03
 -27.547  0.2603E-82  0.2000E+03
 -27.517  0.2603E-82  0.2000E+03
 -27.487  0.2603E-82  0.2000E+03
 -27.457  0.2603E-82  0.2000E+03
 -27.427  0.2603E-82  0.2000E+03
 -27.397  0.2603E-82  0.2000E+03
 -27.367  0.2603E-82  0.2000E+03
 -27.337  0.2603E-82  0.2000E+03
 -27.307  0.2603E-82  0.2000E+03
 -27.277  0.2603E-82  0.2000E+03
 -27.247  0.2603E-82  0.2000E+03
 -27.217  0.2603E-82  0.2000E+03
 -27.187  0.2603E-82  0.2000E+03
 -27.157  0.2603E-82  0.2000E+03
 -27.127  0.2603E-82  0.2000E+03
 -27.097  0.2603E-82  0.2000E+03
 -27.067  0.2603E-82  0.2000E+03
 -27.037  0.2603E-82  0.2000E+03
 -27.007  0.2603E-82  0.2000E+03
 -26.977  0.2603E-82  0.2000E+03
 -26.947  0.2603E-82  0.2000E+03
 -26.917  0.2603E-82  0.2000E+03
 -26.887  0.2603E-82  0.2000E+03
 -26.857  0.2603E-82  0.2000E+03
 -26.827  0.2603E-82  0.2000E+03
 -26.797  0.2603E-82  0.2000E+03
 -26.767  0.2603E-82  0.2000E+03
 -26.737  0.2603E-82  0.2000E+03
 -26.707  0.2603E-82  0.2000E+03
 -26.677  0.2603E-82  0.2000E+03
 -26.647  0.2603E-82  0.2000E+03
 -26.617  0.2603E-82  0.2000E+03
 -26.587  0.2603E-82  0.2000E+03
 -26.557  0.2603E-82  0.2000E+03
 -26.527  0.2603E-82  0.2000E+03
 -26.497  0.2603E-82  0.2000E+03
 -26.467  0.2603E-82  0.2000E+03
 -26.437  0.2603E-82  0.2000E+03
 -26.407  0.2603E-82  0.2000E+03
 -26.377  0.2603E-82  0.2000E+03
 -26.347  0.2603E-82  0.2000E+03
 -26.317  0.2603E-82  0.2000E+03
 -26.287  0.2603E-82  0.2000E+03
 -26.257  0.2603E-82  0.2000E+03
 -26.227  0.2603E-82  0.2000E+03
 -26.197  0.2603E-82  0.2000E+03
 -26.167  0.2603E-82  0.2000E+03
 -26.137  0.2603E-82  0.2000E+03
 -26.107  0.2603E-82  0.2000E+03
 -26.077  0.2603E-82  0.2000E+03
 -26.047  0.2603E-82  0.2000E+03
 -26.017  0.2603E-82  0.2000E+03
 -25.987  0.2603E-82  0.2000E+03
 -25.957  0.2603E-82  0.2000E+03
 -25.927  0.2603E-82  0.2000E+03
 -25.897  0.2603E-82  0.2000E+03
 -25.867  0.2603E-82  0.2000E+03
 -25.837  0.2603E-82  0.2000E+03
 -25.807  0.2603E-82  0.2000E+03
 -25.777  0.2603E-82  0.2000E+03
 -25.747  0.2603E-82  0.2000E+03
 -25.717  0.2603E-82  0.2000E+03
 -25.687  0.2603E-82  0.2000E+03
 -25.657  0.2603E-82  0.2000E+03
 -25.627  0.2603E-82  0.2000E+03
 -25.597  0.2603E-82  0.2000E+03
 -25.567  0.2603E-82  0.2000E+03
 -25.537  0.2603E-82  0.2000E+03
 -25.507  0.2603E-82  0.2000E+03
 -25.477  0.2603E-82  0.2000E+03
 -25.447  0.2603E-82  0.2000E+03
 -25.417  0.2603E-82  0.2000E+03
 -25.387  0.2603E-82  0.2000E+03
 -25.357  0.2603E-82  0.2000E+03
 -25.327  0.2603E-82  0.2000E+03
 -25.297  0.2603E-82  0.2000E+03
 -25.267  0.2603E-82  0.2000E+03
 -25.237  0.2603E-82  0.2000E+03
 -25.207  0.2603E-82  0.2000E+03
 -25.177  0.2603E-82  0.2000E+03
 -25.147  0.2603E-82  0.2000E+03
 -25.117  0.2603E-82  0.2000E+03
 -25.087  0.2603E-82  0.2000E+03
 -25.057  0.2603E-82  0.2000E+03
 -25.027  0.2603E-82  0.2000E+03
 -24.997  0.2603E-82  0.2000E+03
 -24.967  0.2603E-82  0.2000E+03
 -24.937  0.2603E-82  0.2000E+03
 -24.907  0.2603E-82  0.2000E+03
 -24.877  0.2603E-82  0.2000E+03
 -24.847  0.2603E-82  0.2000E+03
 -24.817  0.2603E-82  0.2000E+03
 -24.787  0.2603E-82  0.2000E+03
 -24.757  0.2603E-82  0.2000E+03
 -24.727  0.2603E-82  0.2000E+03
 -24.697  0.2603E-82  0.2000E+03
 -24.667  0.2603E-82  0.2000E+03
 -24.637  0.2603E-82  0.2000E+03
 -24.607  0.2603E-82  0.2000E+03
 -24.577  0.2603E-82  0.2000E+03
 -24.547  0.2603E-82  0.2000E+03
 -24.517  0.2603E-82  0.2000E+03
 -24.487  0.2603E-82  0.2000E+03
 -24.457  0.2603E-82  0.2000E+03
 -24.427  0.2603E-82  0.2000E+03
 -24.397  0.2603E-82  0.2000E+03
 -24.367  0.2603E-82  0.2000E+03
 -24.337  0.2603E-82  0.2000E+03
 -24.307  0.2603E-82  0.2000E+03
 -24.277  0.2603E-82  0.2000E+03
 -24.247  0.2603E-82  0.2000E+03
 -24.217  0.2603E-82  0.2000E+03
 -24.187  0.2603E-82  0.2000E+03
 -24.157  0.2603E-82  0.2000E+03
 -24.127  0.2603E-82  0.2000E+03
 -24.097  0.2603E-82  0.2000E+03
 -24.067  0.2603E-82  0.2000E+03
 -24.037  0.2603E-82  0.2000E+03
 -24.007  0.2603E-82  0.2000E+03
 -23.977  0.2603E-82  0.2000E+03
 -23.947  0.2603E-82  0.2000E+03
 -23.917  0.2603E-82  0.2000E+03
 -23.887  0.2603E-82  0.2000E+03
 -23.857  0.2603E-82  0.2000E+03
 -23.827  0.2603E-82  0.2000E+03
 -23.797  0.2603E-82  0.2000E+03
 -23.767  0.2603E-82  0.2000E+03
 -23.737  0.2603E-82  0.2000E+03
 -23.707  0.2603E-82  0.2000E+03
 -23.677  0.2603E-82  0.2000E+03
 -23.647  0.2603E-82  0.2000E+03
 -23.617  0.2603E-82  0.2000E+03
 -23.587  0.2603E-82  0.2000E+03
 -23.557  0.2603E-82  0.2000E+03
 -23.527  0.2603E-82  0.2000E+03
 -23.497  0.2603E-82  0.2000E+03
 -23.467  0.2603E-82  0.2000E+03
 -23.437  0.2603E-82  0.2000E+03
 -23.407  0.2603E-82  0.2000E+03
 -23.377  0.2603E-82  0.2000E+03
 -23.347  0.2603E-82  0.2000E+03
 -23.317  0.2603E-82  0.2000E+03
 -23.287  0.2603E-82  0.2000E+03
 -23.257  0.2603E-82  0.2000E+03
 -23.227  0.2603E-82  0.2000E+03
 -23.197  0.2603E-82  0.2000E+03
 -23.167  0.2603E-82  0.2000E+03
 -23.137  0.2603E-82  0.2000E+03
 -23.107  0.2603E-82  0.2000E+03
 -23.077  0.2603E-82  0.2000E+03
 -23.047  0.2603E-82  0.2000E+03
 -23.017  0.2603E-82  0.2000E+03
 -22.987  0.2603E-82  0.2000E+03
 -22.957  0.2603E-82  0.2000E+03
 -22.927  0.2603E-82  0.2000E+03
 -22.897  0.2603E-82  0.2000E+03
 -22.867  0.2603E-82  0.2000E+03
 -22.837  0.2603E-82  0.2000E+03
 -22.807  0.2603E-82  0.2000E+03
 -22.777  0.2603E-82  0.2000E+03
 -22.747  0.2603E-82  0.2000E+03
 -22.717  0.2603E-82  0.2000E+03
 -22.687  0.2603E-82  0.2000E+03
 -22.657  0.2603E-82  0.2000E+03
 -22.627  0.2603E-82  0.2000E+03
 -22.597  0.2603E-82  0.2000E+03
 -22.567  0.2603E-82  0.2000E+03
 -22.537  0.2603E-82  0.2000E+03
 -22.507  0.2603E-82  0.2000E+03
 -22.477  0.2603E-82  0.2000E+03
 -22.447  0.2603E-82  0.2000E+03
 -22.417  0.2603E-82  0.2000E+03
 -22.387  0.2603E-82  0.2000E+03
 -22.357  0.2603E-82  0.2000E+03
 -22.327  0.2603E-82  0.2000E+03
 -22.297  0.2603E-82  0.2000E+03
 -22.267  0.2603E-82  0.2000E+03
 -22.237  0.2603E-82  0.2000E+03
 -22.207  0.2603E-82  0.2000E+03
 -22.177  0.2603E-82  0.2000E+03
 -22.147  0.2603E-82  0.2000E+03
 -22.117  0.2603E-82  0.2000E+03
 -22.087  0.2603E-82  0.2000E+03
 -22.057  0.2603E-82  0.2000E+03
 -22.027  0.2603E-82  0.2000E+03
 -21.997  0.2603E-82  0.2000E+03
 -21.967  0.2603E-82  0.2000E+03
 -21.937  0.2603E-82  0.2000E+03
 -21.907  0.2603E-82  0.2000E+03
 -21.877  0.2603E-82  0.2000E+03
 -21.847  0.2603E-82  0.2000E+03
 -21.817  0.2603E-82  0.2000E+03
 -21.787  0.2603E-82  0.2000E+03
 -21.757  0.2603E-82  0.2000E+03
 -21.727  0.2603E-82  0.2000E+03
 -21.697  0.2603E-82  0.2000E+03
 -21.667  0.2603E-82  0.2000E+03
 -21.637  0.2603E-82  0.2000E+03
 -21.607  0.2603E-82  0.2000E+03
 -21.577  0.2603E-82  0.2000E+03
 -21.547  0.2603E-82  0.2000E+03
 -21.517  0.2603E-82  0.2000E+03
 -21.487  0.2603E-82  0.2000E+03
 -21.457  0.2603E-82  0.2000E+03
 -21.427  0.2603E-82  0.2000E+03
 -21.397  0.2603E-82  0.2000E+03
 -21.367  0.2603E-82  0.2000E+03
 -21.337  0.2603E-82  0.2000E+03
 -21.307  0.2603E-82  0.2000E+03
 -21.277  0.2603E-82  0.2000E+03
 -21.247  0.2603E-82  0.2000E+03
 -21.217  0.2603E-82  0.2000E+03
 -21.187  0.2603E-82  0.2000E+03
 -21.157  0.2603E-82  0.2000E+03
 -21.127  0.2603E-82  0.2000E+03
 -21.097  0.2603E-82  0.2000E+03
 -21.067  0.2603E-82  0.2000E+03
 -21.037  0.2603E-82  0.2000E+03
 -21.007  0.2603E-82  0.2000E+03
 -20.977  0.2603E-82  0.2000E+03
 -20.947  0.2603E-82  0.2000E+03
 -20.917  0.2603E-82  0.2000E+03
 -20.887  0.2603E-82  0.2000E+03
 -20.857  0.2603E-82  0.2000E+03
 -20.827  0.2603E-82  0.2000E+03
 -20.797  0.2603E-82  0.2000E+03
 -20.767  0.2603E-82  0.2000E+03
 -20.737  0.2603E-82  0.2000E+03
 -20.707  0.2603E-82  0.2000E+03
 -20.677  0.2603E-82  0.2000E+03
 -20.647  0.2603E-82  0.2000E+03
 -20.617  0.2603E-82  0.2000E+03
 -20.587  0.2603E-82  0.2000E+03
 -20.557  0.2603E-82  0.2000E+03
 -20.527  0.2603E-82  0.2000E+03
 -20.497  0.2603E-82  0.2000E+03
 -20.467  0.2603E-82  0.2000E+03
 -20.437  0.2603E-82  0.2000E+03
 -20.407  0.2603E-82  0.2000E+03
 -20.377  0.2603E-82  0.2000E+03
 -20.347  0.2603E-82  0.2000E+03
 -20.317  0.2603E-82  0.2000E+03
 -20.287  0.2603E-82  0.2000E+03
 -20.257  0.2603E-82  0.2000E+03
 -20.227  0.2603E-82  0.2000E+03
 -20.197  0.2603E-82  0.2000E+03
 -20.167  0.2603E-82  0.2000E+03
 -20.137  0.2603E-82  0.2000E+03
 -20.107  0.2603E-82  0.2000E+03
 -20.077  0.2603E-82  0.2000E+03
 -20.047  0.2603E-82  0.2000E+03
 -20.017  0.2603E-82  0.2000E+03
 -19.987  0.2603E-82  0.2000E+03
 -19.957  0.2603E-82  0.2000E+03
 -19.927  0.2603E-82  0.2000E+03
 -19.897  0.2603E-82  0.2000E+03
 -19.867  0.2603E-82  0.2000E+03
 -19.837  0.2603E-82  0.2000E+03
 -19.807  0.2603E-82  0.2000E+03
 -19.777  0.2603E-82  0.2000E+03
 -19.747  0.2603E-82  0.2000E+03
 -19.717  0.2603E-82  0.2000E+03
 -19.687  0.2603E-82  0.2000E+03
 -19.657  0.2603E-82  0.2000E+03
 -19.627  0.2603E-82  0.2000E+03
 -19.597  0.2603E-82  0.2000E+03
 -19.567  0.2603E-82  0.2000E+03
 -19.537  0.2603E-82  0.2000E+03
 -19.507  0.2603E-82  0.2000E+03
 -19.477  0.2603E-82  0.2000E+03
 -19.447  0.2603E-82  0.2000E+03
 -19.417  0.2603E-82  0.2000E+03
 -19.387  0.2603E-82  0.2000E+03
 -19.357  0.2603E-82  0.2000E+03
 -19.327  0.2603E-82  0.2000E+03
 -19.297  0.2603E-82  0.2000E+03
 -19.267  0.2603E-82  0.2000E+03
 -19.237  0.2603E-82  0.2000E+03
 -19.207  0.2603E-82  0.2000E+03
 -19.177  0.2603E-82  0.2000E+03
 -19.147  0.2603E-82  0.2000E+03
 -19.117  0.2603E-82  0.2000E+03
 -19.087  0.2603E-82  0.2000E+03
 -19.057  0.2603E-82  0.2000E+03
 -19.027  0.2603E-82  0.2000E+03
 -18.997  0.2603E-82  0.2000E+03
 -18.967  0.2603E-82  0.2000E+03
 -18.937  0.2603E-82  0.2000E+03
 -18.907  0.2603E-82  0.2000E+03
 -18.877  0.2603E-82  0.2000E+03
 -18.847  0.2603E-82  0.2000E+03
 -18.817  0.2603E-82  0.2000E+03
 -18.787  0.2603E-82  0.2000E+03
 -18.757  0.2603E-82  0.2000E+03
 -18.727  0.2603E-82  0.2000E+03
 -18.697  0.2603E-82  0.2000E+03
 -18.667  0.2603E-82  0.2000E+03
 -18.637  0.2603E-82  0.2000E+03
 -18.607  0.2603E-82  0.2000E+03
 -18.577  0.2603E-82  0.2000E+03
 -18.547  0.2603E-82  0.2000E+03
 -18.517  0.2603E-82  0.2000E+03
 -18.487  0.2603E-82  0.2000E+03
 -18.457  0.2603E-82  0.2000E+03
 -18.427  0.2603E-82  0.2000E+03
 -18.397  0.2603E-82  0.2000E+03
 -18.367  0.2603E-82  0.2000E+03
 -18.337  0.2603E-82  0.2000E+03
 -18.307  0.2603E-82  0.2000E+03
 -18.277  0.2603E-82  0.2000E+03
 -18.247  0.2603E-82  0.2000E+03
 -18.217  0.2603E-82  0.2000E+03
 -18.187  0.2603E-82  0.2000E+03
 -18.157  0.2603E-82  0.2000E+03
 -18.127  0.2603E-82  0.2000E+03
 -18.097  0.2603E-82  0.2000E+03
 -18.067  0.2603E-82  0.2000E+03
 -18.037  0.2603E-82  0.2000E+03
 -18.007  0.2603E-82  0.2000E+03
 -17.977  0.2603E-82  0.2000E+03
 -17.947  0.2603E-82  0.2000E+03
 -17.917  0.2603E-82  0.2000E+03
 -17.887  0.2603E-82  0.2000E+03
 -17.857  0.2603E-82  0.2000E+03
 -17.827  0.2603E-82  0.2000E+03
 -17.797  0.2603E-82  0.2000E+03
 -17.767  0.2603E-82  0.2000E+03
 -17.737  0.2603E-82  0.2000E+03
 -17.707  0.2603E-82  0.2000E+03
 -17.677  0.2603E-82  0.2000E+03
 -17.647  0.2603E-82  0.2000E+03
 -17.617  0.2603E-82  0.2000E+03
 -17.587  0.2603E-82  0.2000E+03
 -17.557  0.2603E-82  0.2000E+03
 -17.527  0.2603E-82  0.2000E+03
 -17.497  0.2603E-82  0.2000E+03
 -17.467  0.2603E-82  0.2000E+03
 -17.437  0.2603E-82  0.2000E+03
 -17.407  0.2603E-82  0.2000E+03
 -17.377  0.2603E-82  0.2000E+03
 -17.347  0.2603E-82  0.2000E+03
 -17.317  0.2603E-82  0.2000E+03
 -17.287  0.2603E-82  0.2000E+03
 -17.257  0.2603E-82  0.2000E+03
 -17.227  0.2603E-82  0.2000E+03
 -17.197  0.2603E-82  0.2000E+03
 -17.167  0.2603E-82  0.2000E+03
 -17.137  0.2603E-82  0.2000E+03
 -17.107  0.2603E-82  0.2000E+03
 -17.077  0.2603E-82  0.2000E+03
 -17.047  0.2603E-82  0.2000E+03
 -17.017  0.2603E-82  0.2000E+03
 -16.987  0.2603E-82  0.2000E+03
 -16.957  0.2603E-82  0.2000E+03
 -16.927  0.2603E-82  0.2000E+03
 -16.897  0.2603E-82  0.2000E+03
 -16.867  0.2603E-82  0.2000E+03
 -16.837  0.2603E-82  0.2000E+03
 -16.807  0.2603E-82  0.2000E+03
 -16.777  0.2603E-82  0.2000E+03
 -16.747  0.2603E-82  0.2000E+03
 -16.717  0.2603E-82  0.2000E+03
 -16.687  0.2603E-82  0.2000E+03
 -16.657  0.2603E-82  0.2000E+03
 -16.627  0.2603E-82  0.2000E+03
 -16.597  0.2603E-82  0.2000E+03
 -16.567  0.2603E-82  0.2000E+03
 -16.537  0.2603E-82  0.2000E+03
 -16.507  0.2603E-82  0.2000E+03
 -16.477  0.2603E-82  0.2000E+03
 -16.447  0.2603E-82  0.2000E+03
 -16.417  0.2603E-82  0.2000E+03
 -16.387  0.2603E-82  0.2000E+03
 -16.357  0.2603E-82  0.2000E+03
 -16.327  0.2603E-82  0.2000E+03
 -16.297  0.2603E-82  0.2000E+03
 -16.267  0.2603E-82  0.2000E+03
 -16.237  0.2603E-82  0.2000E+03
 -16.207  0.2603E-82  0.2000E+03
 -16.177  0.2603E-82  0.2000E+03
 -16.147  0.2603E-82  0.2000E+03
 -16.117  0.2603E-82  0.2000E+03
 -16.087  0.2603E-82  0.2000E+03
 -16.057  0.2603E-82  0.2000E+03
 -16.027  0.2603E-82  0.2000E+03
 -15.997  0.2603E-82  0.2000E+03
 -15.967  0.2603E-82  0.2000E+03
 -15.937  0.2603E-82  0.2000E+03
 -15.907  0.2603E-82  0.2000E+03
 -15.877  0.2603E-82  0.2000E+03
 -15.847  0.2603E-82  0.2000E+03
 -15.817  0.2603E-82  0.2000E+03
 -15.787  0.2603E-82  0.2000E+03
 -15.757  0.2603E-82  0.2000E+03
 -15.727  0.2603E-82  0.2000E+03
 -15.697  0.2603E-82  0.2000E+03
 -15.667  0.2603E-82  0.2000E+03
 -15.637  0.2603E-82  0.2000E+03
 -15.607  0.2603E-82  0.2000E+03
 -15.577  0.2603E-82  0.2000E+03
 -15.547  0.2603E-82  0.2000E+03
 -15.517  0.2603E-82  0.2000E+03
 -15.487  0.2604E-82  0.2000E+03
 -15.457  0.8592E-74  0.2000E+03
 -15.427  0.7497E-63  0.2000E+03
 -15.397  0.8886E-53  0.2000E+03
 -15.367  0.1432E-43  0.2000E+03
 -15.337  0.3138E-35  0.2000E+03
 -15.307  0.9367E-28  0.2000E+03
 -15.277  0.3814E-21  0.2000E+03
 -15.247  0.2124E-15  0.2000E+03
 -15.217  0.1623E-10  0.2000E+03
 -15.187  0.1711E-06  0.2000E+03
 -15.157  0.2513E-03  0.2000E+03
 -15.127  0.5237E-01  0.2000E+03
 -15.097  0.1614E+01  0.2000E+03
 -15.067  0.8230E+01  0.2003E+03
 -15.037  0.9959E+01  0.2006E+03
 -15.007  0.6913E+01  0.2008E+03
 -14.977  0.5486E+01  0.2010E+03
 -14.947  0.7908E+01  0.2012E+03
 -14.917  0.2106E+02  0.2018E+03
 -14.887  0.2425E+02  0.2026E+03
 -14.857  0.1656E+02  0.2031E+03
 -14.827  0.1203E+02  0.2034E+03
 -14.797  0.1043E+02  0.2037E+03
 -14.767  0.9569E+01  0.2040E+03
 -14.737  0.8919E+01  0.2043E+03
 -14.707  0.8432E+01  0.2045E+03
 -14.677  0.8327E+01  0.2048E+03
 -14.647  0.1109E+02  0.2051E+03
 -14.617  0.1484E+02  0.2056E+03
 -14.587  0.1295E+02  0.2060E+03
 -14.557  0.1114E+02  0.2063E+03
 -14.527  0.1253E+02  0.2067E+03
 -14.497  0.2087E+02  0.2073E+03
 -14.467  0.2273E+02  0.2080E+03
 -14.437  0.1861E+02  0.2085E+03
 -14.407  0.1628E+02  0.2090E+03
 -14.377  0.1524E+02  0.2095E+03
 -14.347  0.1500E+02  0.2099E+03
 -14.317  0.1559E+02  0.2104E+03
 -14.287  0.1484E+02  0.2108E+03
 -14.257  0.1398E+02  0.2113E+03
 -14.227  0.1381E+02  0.2117E+03
 -14.197  0.1326E+02  0.2121E+03
 -14.167  0.1287E+02  0.2125E+03
 -14.137  0.1282E+02  0.2128E+03
 -14.107  0.1230E+02  0.2132E+03
 -14.077  0.1235E+02  0.2136E+03
 -14.047  0.1213E+02  0.2139E+03
 -14.017  0.1186E+02  0.2143E+03
 -13.987  0.1194E+02  0.2147E+03
 -13.957  0.1444E+02  0.2151E+03
 -13.927  0.2958E+02  0.2160E+03
 -13.897  0.3603E+02  0.2171E+03
 -13.867  0.2586E+02  0.2178E+03
 -13.837  0.2063E+02  0.2185E+03
 -13.807  0.1894E+02  0.2190E+03
 -13.777  0.2297E+02  0.2197E+03
 -13.747  0.3336E+02  0.2207E+03
 -13.717  0.4085E+02  0.2219E+03
 -13.687  0.5759E+02  0.2237E+03
 -13.657  0.5316E+02  0.2253E+03
 -13.627  0.4712E+02  0.2267E+03
 -13.597  0.4920E+02  0.2282E+03
 -13.567  0.5367E+02  0.2298E+03
 -13.537  0.5848E+02  0.2315E+03
 -13.507  0.6714E+02  0.2335E+03
 -13.477  0.6184E+02  0.2354E+03
 -13.447  0.5826E+02  0.2371E+03
 -13.417  0.5731E+02  0.2389E+03
 -13.387  0.6481E+02  0.2408E+03
 -13.357  0.7162E+02  0.2429E+03
 -13.327  0.7040E+02  0.2451E+03
 -13.297  0.8984E+02  0.2478E+03
 -13.267  0.1018E+03  0.2508E+03
 -13.237  0.8939E+02  0.2535E+03
 -13.207  0.8690E+02  0.2561E+03
 -13.177  0.1001E+03  0.2591E+03
 -13.147  0.1300E+03  0.2630E+03
 -13.117  0.1275E+03  0.2668E+03
 -13.087  0.1137E+03  0.2702E+03
 -13.057  0.1217E+03  0.2739E+03
 -13.027  0.1366E+03  0.2780E+03
 -12.997  0.1685E+03  0.2830E+03
 -12.967  0.1584E+03  0.2878E+03
 -12.937  0.1136E+03  0.2912E+03
 -12.907  0.1062E+03  0.2944E+03
 -12.877  0.9231E+02  0.2972E+03
 -12.847  0.6011E+02  0.2990E+03
 -12.817  0.2997E+02  0.2999E+03
 -12.787  0.4573E+01  0.3000E+03
 -12.757  0.1297E+00  0.3000E+03
 -12.727  0.5746E-03  0.3000E+03
 -12.697  0.3715E-06  0.3000E+03
 -12.667  0.3400E-10  0.3000E+03
 -12.637  0.4341E-15  0.3000E+03
 -12.607  0.7668E-21  0.3000E+03
 -12.577  0.1864E-27  0.3000E+03
 -12.547  0.6219E-35  0.3000E+03
 -12.517  0.2838E-43  0.3000E+03
 -12.487  0.1769E-52  0.3000E+03
 -12.457  0.1503E-62  0.3000E+03
 -12.427  0.1739E-73  0.3000E+03
 -12.397  0.2605E-82  0.3000E+03
 -12.367  0.2603E-82  0.3000E+03
 -12.337  0.2603E-82  0.3000E+03
 -12.307  0.2603E-82  0.3000E+03
 -12.277  0.2603E-82  0.3000E+03
 -12.247  0.2603E-82  0.3000E+03
 -12.217  0.2603E-82  0.3000E+03
 -12.187  0.2603E-82  0.3000E+03
 -12.157  0.2603E-82  0.3000E+03
 -12.127  0.2603E-82  0.3000E+03
 -12.097  0.2603E-82  0.3000E+03
 -12.067  0.2603E-82  0.3000E+03
 -12.037  0.2603E-82  0.3000E+03
 -12.007  0.2603E-82  0.3000E+03
 -11.977  0.2603E-82  0.3000E+03
 -11.947  0.2603E-82  0.3000E+03
 -11.917  0.2603E-82  0.3000E+03
 -11.887  0.2603E-82  0.3000E+03
 -11.857  0.2603E-82  0.3000E+03
 -11.827  0.2603E-82  0.3000E+03
 -11.797  0.2603E-82  0.3000E+03
 -11.767  0.2603E-82  0.3000E+03
 -11.737  0.2603E-82  0.3000E+03
 -11.707  0.2603E-82  0.3000E+03
 -11.677  0.2603E-82  0.3000E+03
 -11.647  0.2603E-82  0.3000E+03
 -11.617  0.2603E-82  0.3000E+03
 -11.587  0.2603E-82  0.3000E+03
 -11.557  0.2603E-82  0.3000E+03
 -11.527  0.2603E-82  0.3000E+03
 -11.497  0.2603E-82  0.3000E+03
 -11.467  0.2603E-82  0.3000E+03
 -11.437  0.2603E-82  0.3000E+03
 -11.407  0.2603E-82  0.3000E+03
 -11.377  0.2603E-82  0.3000E+03
 -11.347  0.2603E-82  0.3000E+03
 -11.317  0.2603E-82  0.3000E+03
 -11.287  0.2603E-82  0.3000E+03
 -11.257  0.2603E-82  0.3000E+03
 -11.227  0.2603E-82  0.3000E+03
 -11.197  0.2603E-82  0.3000E+03
 -11.167  0.2603E-82  0.3000E+03
 -11.137  0.2603E-82  0.3000E+03
 -11.107  0.2603E-82  0.3000E+03
 -11.077  0.2603E-82  0.3000E+03
 -11.047  0.2603E-82  0.3000E+03
 -11.017  0.2603E-82  0.3000E+03
 -10.987  0.2603E-82  0.3000E+03
 -10.957  0.2603E-82  0.3000E+03
 -10.927  0.2603E-82  0.3000E+03
 -10.897  0.2603E-82  0.3000E+03
 -10.867  0.2603E-82  0.3000E+03
 -10.837  0.2603E-82  0.3000E+03
 -10.807  0.2603E-82  0.3000E+03
 -10.777  0.2603E-82  0.3000E+03
 -10.747  0.2603E-82  0.3000E+03
 -10.717  0.2603E-82  0.3000E+03
 -10.687  0.2603E-82  0.3000E+03
 -10.657  0.2603E-82  0.3000E+03
 -10.627  0.2603E-82  0.3000E+03
 -10.597  0.2603E-82  0.3000E+03
 -10.567  0.2603E-82  0.3000E+03
 -10.537  0.2603E-82  0.3000E+03
 -10.507  0.2603E-82  0.3000E+03
 -10.477  0.2603E-82  0.3000E+03
 -10.447  0.2603E-82  0.3000E+03
 -10.417  0.2603E-82  0.3000E+03
 -10.387  0.2603E-82  0.3000E+03
 -10.357  0.2603E-82  0.3000E+03
 -10.327  0.2603E-82  0.3000E+03
 -10.297  0.2603E-82  0.3000E+03
 -10.267  0.2603E-82  0.3000E+03
 -10.237  0.2603E-82  0.3000E+03
 -10.207  0.2603E-82  0.3000E+03
 -10.177  0.2603E-82  0.3000E+03
 -10.147  0.2603E-82  0.3000E+03
 -10.117  0.2603E-82  0.3000E+03
 -10.087  0.2603E-82  0.3000E+03
 -10.057  0.2603E-82  0.3000E+03
 -10.027  0.2603E-82  0.3000E+03
  -9.997  0.2603E-82  0.3000E+03
  -9.967  0.2603E-82  0.3000E+03
  -9.937  0.2603E-82  0.3000E+03
  -9.907  0.2603E-82  0.3000E+03
  -9.877  0.2603E-82  0.3000E+03
  -9.847  0.2603E-82  0.3000E+03
  -9.817  0.2603E-82  0.3000E+03
  -9.787  0.2603E-82  0.3000E+03
  -9.757  0.2603E-82  0.3000E+03
  -9.727  0.2603E-82  0.3000E+03
  -9.697  0.2603E-82  0.3000E+03
  -9.667  0.2603E-82  0.3000E+03
  -9.637  0.2603E-82  0.3000E+03
  -9.607  0.2603E-82  0.3000E+03
  -9.577  0.2603E-82  0.3000E+03
  -9.547  0.2603E-82  0.3000E+03
  -9.517  0.2603E-82  0.3000E+03
  -9.487  0.2603E-82  0.3000E+03
  -9.457  0.2603E-82  0.3000E+03
  -9.427  0.2603E-82  0.3000E+03
  -9.397  0.2603E-82  0.3000E+03
  -9.367  0.2603E-82  0.3000E+03
  -9.337  0.2603E-82  0.3000E+03
  -9.307  0.2603E-82  0.3000E+03
  -9.277  0.2603E-82  0.3000E+03
  -9.247  0.2603E-82  0.3000E+03
  -9.217  0.2603E-82  0.3000E+03
  -9.187  0.2603E-82  0.3000E+03
  -9.157  0.2603E-82  0.3000E+03
  -9.127  0.2603E-82  0.3000E+03
  -9.097  0.2603E-82  0.3000E+03
  -9.067  0.2603E-82  0.3000E+03
  -9.037  0.2603E-82  0.3000E+03
  -9.007  0.2603E-82  0.3000E+03
  -8.977  0.2603E-82  0.3000E+03
  -8.947  0.2603E-82  0.3000E+03
  -8.917  0.2603E-82  0.3000E+03
  -8.887  0.2603E-82  0.3000E+03
  -8.857  0.2603E-82  0.3000E+03
  -8.827  0.2603E-82  0.3000E+03
  -8.797  0.2603E-82  0.3000E+03
  -8.767  0.2603E-82  0.3000E+03
  -8.737  0.2603E-82  0.3000E+03
  -8.707  0.2603E-82  0.3000E+03
  -8.677  0.2603E-82  0.3000E+03
  -8.647  0.2603E-82  0.3000E+03
  -8.617  0.2603E-82  0.3000E+03
  -8.587  0.2603E-82  0.3000E+03
  -8.557  0.2603E-82  0.3000E+03
  -8.527  0.2603E-82  0.3000E+03
  -8.497  0.2603E-82  0.3000E+03
  -8.467  0.2603E-82  0.3000E+03
  -8.437  0.2603E-82  0.3000E+03
  -8.407  0.2603E-82  0.3000E+03
  -8.377  0.2603E-82  0.3000E+03
  -8.347  0.2603E-82  0.3000E+03
  -8.317  0.2603E-82  0.3000E+03
  -8.287  0.2603E-82  0.3000E+03
  -8.257  0.2603E-82  0.3000E+03
  -8.227  0.2603E-82  0.3000E+03
  -8.197  0.2603E-82  0.3000E+03
  -8.167  0.2603E-82  0.3000E+03
  -8.137  0.2603E-82  0.3000E+03
  -8.107  0.2603E-82  0.3000E+03
  -8.077  0.2603E-82  0.3000E+03
  -8.047  0.2603E-82  0.3000E+03
  -8.017  0.2603E-82  0.3000E+03
  -7.987  0.2603E-82  0.3000E+03
  -7.957  0.2603E-82  0.3000E+03
  -7.927  0.2603E-82  0.3000E+03
  -7.897  0.2603E-82  0.3000E+03
  -7.867  0.2603E-82  0.3000E+03
  -7.837  0.2603E-82  0.3000E+03
  -7.807  0.2603E-82  0.3000E+03
  -7.777  0.2603E-82  0.3000E+03
  -7.747  0.2603E-82  0.3000E+03
  -7.717  0.2603E-82  0.3000E+03
  -7.687  0.2603E-82  0.3000E+03
  -7.657  0.2603E-82  0.3000E+03
  -7.627  0.2603E-82  0.3000E+03
  -7.597  0.2603E-82  0.3000E+03
  -7.567  0.2603E-82  0.3000E+03
  -7.537  0.2603E-82  0.3000E+03
  -7.507  0.2603E-82  0.3000E+03
  -7.477  0.2603E-82  0.3000E+03
  -7.447  0.2603E-82  0.3000E+03
  -7.417  0.2603E-82  0.3000E+03
  -7.387  0.2603E-82  0.3000E+03
  -7.357  0.2603E-82  0.3000E+03
  -7.327  0.2603E-82  0.3000E+03
  -7.297  0.2603E-82  0.3000E+03
  -7.267  0.2603E-82  0.3000E+03
  -7.237  0.2603E-82  0.3000E+03
  -7.207  0.2603E-82  0.3000E+03
  -7.177  0.2603E-82  0.3000E+03
  -7.147  0.1363E-78  0.3000E+03
  -7.117  0.2768E-67  0.3000E+03
  -7.087  0.7631E-57  0.3000E+03
  -7.057  0.2859E-47  0.3000E+03
  -7.027  0.1456E-38  0.3000E+03
  -6.997  0.1009E-30  0.3000E+03
  -6.967  0.9529E-24  0.3000E+03
  -6.937  0.1228E-17  0.3000E+03
  -6.907  0.2167E-12  0.3000E+03
  -6.877  0.5257E-08  0.3000E+03
  -6.847  0.1765E-04  0.3000E+03
  -6.817  0.8317E-02  0.3000E+03
  -6.787  0.5655E+00  0.3000E+03
  -6.757  0.6017E+01  0.3002E+03
  -6.727  0.1475E+02  0.3006E+03
  -6.697  0.2651E+02  0.3014E+03
  -6.667  0.3244E+02  0.3024E+03
  -6.637  0.2442E+02  0.3031E+03
  -6.607  0.2327E+02  0.3038E+03
  -6.577  0.3503E+02  0.3049E+03
  -6.547  0.3710E+02  0.3060E+03
  -6.517  0.3710E+02  0.3071E+03
  -6.487  0.3784E+02  0.3083E+03
  -6.457  0.3297E+02  0.3092E+03
  -6.427  0.3703E+02  0.3103E+03
  -6.397  0.5491E+02  0.3120E+03
  -6.367  0.6490E+02  0.3139E+03
  -6.337  0.7315E+02  0.3161E+03
  -6.307  0.7282E+02  0.3183E+03
  -6.277  0.6417E+02  0.3202E+03
  -6.247  0.5786E+02  0.3220E+03
  -6.217  0.5978E+02  0.3238E+03
  -6.187  0.7728E+02  0.3261E+03
  -6.157  0.8820E+02  0.3287E+03
  -6.127  0.8863E+02  0.3314E+03
  -6.097  0.9250E+02  0.3342E+03
  -6.067  0.1105E+03  0.3375E+03
  -6.037  0.1425E+03  0.3418E+03
  -6.007  0.1453E+03  0.3461E+03
  -5.977  0.1190E+03  0.3497E+03
  -5.947  0.9748E+02  0.3526E+03
  -5.917  0.8745E+02  0.3552E+03
  -5.887  0.7601E+02  0.3575E+03
  -5.857  0.4840E+02  0.3590E+03
  -5.827  0.5794E+02  0.3607E+03
  -5.797  0.6441E+02  0.3626E+03
  -5.767  0.5414E+02  0.3643E+03
  -5.737  0.4118E+02  0.3655E+03
  -5.707  0.3611E+02  0.3666E+03
  -5.677  0.3372E+02  0.3676E+03
  -5.647  0.3087E+02  0.3685E+03
  -5.617  0.3102E+02  0.3695E+03
  -5.587  0.3315E+02  0.3705E+03
  -5.557  0.3795E+02  0.3716E+03
  -5.527  0.3424E+02  0.3726E+03
  -5.497  0.2179E+02  0.3733E+03
  -5.467  0.1713E+02  0.3738E+03
  -5.437  0.1674E+02  0.3743E+03
  -5.407  0.1640E+02  0.3748E+03
  -5.377  0.1655E+02  0.3753E+03
  -5.347  0.1550E+02  0.3757E+03
  -5.317  0.1636E+02  0.3762E+03
  -5.287  0.1568E+02  0.3767E+03
  -5.257  0.1552E+02  0.3772E+03
  -5.227  0.1706E+02  0.3777E+03
  -5.197  0.1616E+02  0.3782E+03
  -5.167  0.1694E+02  0.3787E+03
  -5.137  0.1337E+02  0.3791E+03
  -5.107  0.1192E+02  0.3794E+03
  -5.077  0.1379E+02  0.3798E+03
  -5.047  0.1805E+02  0.3804E+03
  -5.017  0.4034E+02  0.3816E+03
  -4.987  0.7324E+02  0.3838E+03
  -4.957  0.7884E+02  0.3862E+03
  -4.927  0.1077E+03  0.3894E+03
  -4.897  0.1168E+03  0.3929E+03
  -4.867  0.1015E+03  0.3959E+03
  -4.837  0.1153E+03  0.3994E+03
  -4.807  0.1444E+03  0.4037E+03
  -4.777  0.1786E+03  0.4091E+03
  -4.747  0.1354E+03  0.4131E+03
  -4.717  0.9581E+02  0.4160E+03
  -4.687  0.8286E+02  0.4185E+03
  -4.657  0.8408E+02  0.4210E+03
  -4.627  0.8228E+02  0.4235E+03
  -4.597  0.7044E+02  0.4256E+03
  -4.567  0.6520E+02  0.4276E+03
  -4.537  0.5977E+02  0.4294E+03
  -4.507  0.4380E+02  0.4307E+03
  -4.477  0.3427E+02  0.4317E+03
  -4.447  0.3027E+02  0.4326E+03
  -4.417  0.2724E+02  0.4334E+03
  -4.387  0.2649E+02  0.4342E+03
  -4.357  0.2719E+02  0.4350E+03
  -4.327  0.2781E+02  0.4359E+03
  -4.297  0.3834E+02  0.4370E+03
  -4.267  0.6270E+02  0.4389E+03
  -4.237  0.6935E+02  0.4410E+03
  -4.207  0.6676E+02  0.4430E+03
  -4.177  0.9901E+02  0.4460E+03
  -4.147  0.1514E+03  0.4505E+03
  -4.117  0.1855E+03  0.4561E+03
  -4.087  0.1696E+03  0.4612E+03
  -4.057  0.1332E+03  0.4651E+03
  -4.027  0.1129E+03  0.4685E+03
  -3.997  0.8922E+02  0.4712E+03
  -3.967  0.7639E+02  0.4735E+03
  -3.937  0.6898E+02  0.4756E+03
  -3.907  0.6100E+02  0.4774E+03
  -3.877  0.6350E+02  0.4793E+03
  -3.847  0.8178E+02  0.4818E+03
  -3.817  0.9681E+02  0.4847E+03
  -3.787  0.5808E+02  0.4864E+03
  -3.757  0.3602E+02  0.4875E+03
  -3.727  0.3110E+02  0.4884E+03
  -3.697  0.3175E+02  0.4894E+03
  -3.667  0.3655E+02  0.4905E+03
  -3.637  0.3937E+02  0.4917E+03
  -3.607  0.3850E+02  0.4928E+03
  -3.577  0.3187E+02  0.4938E+03
  -3.547  0.3231E+02  0.4947E+03
  -3.517  0.2726E+02  0.4955E+03
  -3.487  0.3308E+02  0.4965E+03
  -3.457  0.3583E+02  0.4976E+03
  -3.427  0.3344E+02  0.4986E+03
  -3.397  0.3657E+02  0.4997E+03
  -3.367  0.4420E+02  0.5010E+03
  -3.337  0.4207E+02  0.5023E+03
  -3.307  0.4832E+02  0.5038E+03
  -3.277  0.3925E+02  0.5049E+03
  -3.247  0.3801E+02  0.5061E+03
  -3.217  0.3842E+02  0.5072E+03
  -3.187  0.4573E+02  0.5086E+03
  -3.157  0.4978E+02  0.5101E+03
  -3.127  0.5083E+02  0.5116E+03
  -3.097  0.5666E+02  0.5133E+03
  -3.067  0.5315E+02  0.5149E+03
  -3.037  0.4268E+02  0.5162E+03
  -3.007  0.4505E+02  0.5175E+03
  -2.977  0.5526E+02  0.5192E+03
  -2.947  0.6458E+02  0.5211E+03
  -2.917  0.8275E+02  0.5236E+03
  -2.887  0.9413E+02  0.5264E+03
  -2.857  0.1035E+03  0.5295E+03
  -2.827  0.1353E+03  0.5336E+03
  -2.797  0.1478E+03  0.5380E+03
  -2.767  0.1225E+03  0.5417E+03
  -2.737  0.1087E+03  0.5450E+03
  -2.707  0.9051E+02  0.5477E+03
  -2.677  0.8884E+02  0.5504E+03
  -2.647  0.9195E+02  0.5531E+03
  -2.617  0.9935E+02  0.5561E+03
  -2.587  0.1017E+03  0.5591E+03
  -2.557  0.7006E+02  0.5612E+03
  -2.527  0.5512E+02  0.5629E+03
  -2.497  0.5294E+02  0.5645E+03
  -2.467  0.5350E+02  0.5661E+03
  -2.437  0.4741E+02  0.5675E+03
  -2.407  0.5456E+02  0.5692E+03
  -2.377  0.5876E+02  0.5709E+03
  -2.347  0.5401E+02  0.5725E+03
  -2.317  0.5024E+02  0.5740E+03
  -2.287  0.4791E+02  0.5755E+03
  -2.257  0.4752E+02  0.5769E+03
  -2.227  0.4618E+02  0.5783E+03
  -2.197  0.4967E+02  0.5798E+03
  -2.167  0.5278E+02  0.5814E+03
  -2.137  0.5227E+02  0.5829E+03
  -2.107  0.4983E+02  0.5844E+03
  -2.077  0.5500E+02  0.5861E+03
  -2.047  0.6463E+02  0.5880E+03
  -2.017  0.7936E+02  0.5904E+03
  -1.987  0.7636E+02  0.5927E+03
  -1.957  0.6470E+02  0.5946E+03
  -1.927  0.5141E+02  0.5962E+03
  -1.897  0.4878E+02  0.5976E+03
  -1.867  0.7125E+02  0.5998E+03
  -1.837  0.7484E+02  0.6020E+03
  -1.807  0.6379E+02  0.6039E+03
  -1.777  0.7182E+02  0.6061E+03
  -1.747  0.8427E+02  0.6086E+03
  -1.717  0.7430E+02  0.6108E+03
  -1.687  0.6825E+02  0.6129E+03
  -1.657  0.7304E+02  0.6151E+03
  -1.627  0.6742E+02  0.6171E+03
  -1.597  0.5809E+02  0.6188E+03
  -1.567  0.5935E+02  0.6206E+03
  -1.537  0.6407E+02  0.6226E+03
  -1.507  0.6285E+02  0.6244E+03
  -1.477  0.6470E+02  0.6264E+03
  -1.447  0.7368E+02  0.6286E+03
  -1.417  0.7353E+02  0.6308E+03
  -1.387  0.6434E+02  0.6327E+03
  -1.357  0.5689E+02  0.6344E+03
  -1.327  0.5340E+02  0.6360E+03
  -1.297  0.4327E+02  0.6373E+03
  -1.267  0.4328E+02  0.6386E+03
  -1.237  0.4405E+02  0.6400E+03
  -1.207  0.3763E+02  0.6411E+03
  -1.177  0.3035E+02  0.6420E+03
  -1.147  0.3172E+02  0.6429E+03
  -1.117  0.3702E+02  0.6441E+03
  -1.087  0.3814E+02  0.6452E+03
  -1.057  0.4081E+02  0.6464E+03
  -1.027  0.4090E+02  0.6476E+03
  -0.997  0.2807E+02  0.6485E+03
  -0.967  0.2307E+02  0.6492E+03
  -0.937  0.1101E+02  0.6495E+03
  -0.907  0.4556E+01  0.6497E+03
  -0.877  0.5559E+01  0.6498E+03
  -0.847  0.4910E+01  0.6500E+03
  -0.817  0.1067E+01  0.6500E+03
  -0.787  0.3840E-01  0.6500E+03
  -0.757  0.2037E-03  0.6500E+03
  -0.727  0.1528E-06  0.6500E+03
  -0.697  0.1593E-10  0.6500E+03
  -0.667  0.2287E-15  0.6500E+03
  -0.637  0.4500E-21  0.6500E+03
  -0.607  0.1210E-27  0.6500E+03
  -0.577  0.4443E-35  0.6500E+03
  -0.547  0.2223E-43  0.6500E+03
  -0.517  0.1514E-52  0.6500E+03
  -0.487  0.1403E-62  0.6500E+03
  -0.457  0.1768E-73  0.6500E+03
  -0.427  0.2605E-82  0.6500E+03
  -0.397  0.2603E-82  0.6500E+03
  -0.367  0.2603E-82  0.6500E+03
  -0.337  0.2603E-82  0.6500E+03
  -0.307  0.2603E-82  0.6500E+03
  -0.277  0.2603E-82  0.6500E+03
  -0.247  0.2603E-82  0.6500E+03
  -0.217  0.2603E-82  0.6500E+03
  -0.187  0.2603E-82  0.6500E+03
  -0.157  0.2603E-82  0.6500E+03
  -0.127  0.2603E-82  0.6500E+03
  -0.097  0.2603E-82  0.6500E+03
  -0.067  0.2603E-82  0.6500E+03
  -0.037  0.2603E-82  0.6500E+03
  -0.007  0.2603E-82  0.6500E+03
   0.023  0.2603E-82  0.6500E+03
   0.053  0.2603E-82  0.6500E+03
   0.083  0.2603E-82  0.6500E+03
   0.113  0.2603E-82  0.6500E+03
   0.143  0.2603E-82  0.6500E+03
   0.173  0.2603E-82  0.6500E+03
   0.203  0.2603E-82  0.6500E+03
   0.233  0.2603E-82  0.6500E+03
   0.263  0.2603E-82  0.6500E+03
   0.293  0.2603E-82  0.6500E+03
   0.323  0.2603E-82  0.6500E+03
   0.353  0.2603E-82  0.6500E+03
   0.383  0.2603E-82  0.6500E+03
   0.413  0.2676E-82  0.6500E+03
   0.443  0.3465E-72  0.6500E+03
   0.473  0.2200E-61  0.6500E+03
   0.503  0.1904E-51  0.6500E+03
   0.533  0.2250E-42  0.6500E+03
   0.563  0.3640E-34  0.6500E+03
   0.593  0.8077E-27  0.6500E+03
   0.623  0.2465E-20  0.6500E+03
   0.653  0.1038E-14  0.6500E+03
   0.683  0.6050E-10  0.6500E+03
   0.713  0.4915E-06  0.6500E+03
   0.743  0.5617E-03  0.6500E+03
   0.773  0.9208E-01  0.6500E+03
   0.803  0.2263E+01  0.6501E+03
   0.833  0.9439E+01  0.6504E+03
   0.863  0.1009E+02  0.6507E+03
   0.893  0.7088E+01  0.6509E+03
   0.923  0.6163E+01  0.6511E+03
   0.953  0.8551E+01  0.6513E+03
   0.983  0.1451E+02  0.6517E+03
   1.013  0.2076E+02  0.6524E+03
   1.043  0.3027E+02  0.6533E+03
   1.073  0.4904E+02  0.6547E+03
   1.103  0.6830E+02  0.6568E+03
   1.133  0.9653E+02  0.6597E+03
   1.163  0.1085E+03  0.6629E+03
   1.193  0.1022E+03  0.6660E+03
   1.223  0.1121E+03  0.6694E+03
   1.253  0.1190E+03  0.6729E+03
   1.283  0.1269E+03  0.6768E+03
   1.313  0.1565E+03  0.6815E+03
   1.343  0.1975E+03  0.6874E+03
   1.373  0.1509E+03  0.6919E+03
   1.403  0.9116E+02  0.6946E+03
   1.433  0.5329E+02  0.6962E+03
   1.463  0.3061E+02  0.6972E+03
   1.493  0.4670E+02  0.6986E+03
   1.523  0.7669E+02  0.7009E+03
   1.553  0.1070E+03  0.7041E+03
   1.583  0.1253E+03  0.7078E+03
   1.613  0.1167E+03  0.7113E+03
   1.643  0.1315E+03  0.7153E+03
   1.673  0.1459E+03  0.7197E+03
   1.703  0.1654E+03  0.7246E+03
   1.733  0.1473E+03  0.7290E+03
   1.763  0.1223E+03  0.7327E+03
   1.793  0.1068E+03  0.7359E+03
   1.823  0.9754E+02  0.7388E+03
   1.853  0.9847E+02  0.7418E+03
   1.883  0.1045E+03  0.7449E+03
   1.913  0.8455E+02  0.7475E+03
   1.943  0.8038E+02  0.7499E+03
   1.973  0.9427E+02  0.7527E+03
   2.003  0.7523E+02  0.7550E+03
   2.033  0.6113E+02  0.7568E+03
   2.063  0.5704E+02  0.7585E+03
   2.093  0.5665E+02  0.7602E+03
   2.123  0.6219E+02  0.7621E+03
   2.153  0.7006E+02  0.7642E+03
   2.183  0.8323E+02  0.7667E+03
   2.213  0.9329E+02  0.7695E+03
   2.243  0.9743E+02  0.7724E+03
   2.273  0.9086E+02  0.7751E+03
   2.303  0.7666E+02  0.7774E+03
   2.333  0.6830E+02  0.7795E+03
   2.363  0.6321E+02  0.7814E+03
   2.393  0.5564E+02  0.7830E+03
   2.423  0.5591E+02  0.7847E+03
   2.453  0.5676E+02  0.7864E+03
   2.483  0.5029E+02  0.7879E+03
   2.513  0.4748E+02  0.7893E+03
   2.543  0.5171E+02  0.7909E+03
   2.573  0.5655E+02  0.7926E+03
   2.603  0.4938E+02  0.7941E+03
   2.633  0.3644E+02  0.7952E+03
   2.663  0.3447E+02  0.7962E+03
   2.693  0.3474E+02  0.7972E+03
   2.723  0.3816E+02  0.7984E+03
   2.753  0.3738E+02  0.7995E+03
   2.783  0.3476E+02  0.8005E+03
   2.813  0.3632E+02  0.8016E+03
   2.843  0.3988E+02  0.8028E+03
   2.873  0.3755E+02  0.8040E+03
   2.903  0.3573E+02  0.8050E+03
   2.933  0.3462E+02  0.8061E+03
   2.963  0.3023E+02  0.8070E+03
   2.993  0.3187E+02  0.8079E+03
   3.023  0.3779E+02  0.8091E+03
   3.053  0.4015E+02  0.8103E+03
   3.083  0.3843E+02  0.8114E+03
   3.113  0.3423E+02  0.8124E+03
   3.143  0.3796E+02  0.8136E+03
   3.173  0.3446E+02  0.8146E+03
   3.203  0.3403E+02  0.8156E+03
   3.233  0.4212E+02  0.8169E+03
   3.263  0.5163E+02  0.8185E+03
   3.293  0.5450E+02  0.8201E+03
   3.323  0.5512E+02  0.8217E+03
   3.353  0.7198E+02  0.8239E+03
   3.383  0.9748E+02  0.8268E+03
   3.413  0.9143E+02  0.8296E+03
   3.443  0.6851E+02  0.8316E+03
   3.473  0.6272E+02  0.8335E+03
   3.503  0.6109E+02  0.8353E+03
   3.533  0.5650E+02  0.8370E+03
   3.563  0.5546E+02  0.8387E+03
   3.593  0.4212E+02  0.8400E+03
   3.623  0.2760E+02  0.8408E+03
   3.653  0.2892E+02  0.8417E+03
   3.683  0.3264E+02  0.8426E+03
   3.713  0.2933E+02  0.8435E+03
   3.743  0.2812E+02  0.8444E+03
   3.773  0.2682E+02  0.8452E+03
   3.803  0.2977E+02  0.8461E+03
   3.833  0.2594E+02  0.8468E+03
   3.863  0.2276E+02  0.8475E+03
   3.893  0.1683E+02  0.8480E+03
   3.923  0.1194E+02  0.8484E+03
   3.953  0.1152E+02  0.8487E+03
   3.983  0.1334E+02  0.8491E+03
   4.013  0.1127E+02  0.8495E+03
   4.043  0.6812E+01  0.8497E+03
   4.073  0.7194E+01  0.8499E+03
   4.103  0.3447E+01  0.8500E+03
   4.133  0.3182E+00  0.8500E+03
   4.163  0.4534E-02  0.8500E+03
   4.193  0.9300E-05  0.8500E+03
   4.223  0.2672E-08  0.8500E+03
   4.253  0.1062E-12  0.8500E+03
   4.283  0.5796E-18  0.8500E+03
   4.313  0.2144E-15  0.8500E+03
   4.343  0.1548E-10  0.8500E+03
   4.373  0.1544E-06  0.8500E+03
   4.403  0.2146E-03  0.8500E+03
   4.433  0.4242E-01  0.8500E+03
   4.463  0.1244E+01  0.8500E+03
   4.493  0.6096E+01  0.8502E+03
   4.523  0.7300E+01  0.8504E+03
   4.553  0.5223E+01  0.8506E+03
   4.583  0.4207E+01  0.8507E+03
   4.613  0.3698E+01  0.8508E+03
   4.643  0.3386E+01  0.8509E+03
   4.673  0.4027E+01  0.8511E+03
   4.703  0.1090E+02  0.8514E+03
   4.733  0.2416E+02  0.8521E+03
   4.763  0.2629E+02  0.8529E+03
   4.793  0.1973E+02  0.8535E+03
   4.823  0.1529E+02  0.8539E+03
   4.853  0.1270E+02  0.8543E+03
   4.883  0.1613E+02  0.8548E+03
   4.913  0.2767E+02  0.8556E+03
   4.943  0.2611E+02  0.8564E+03
   4.973  0.2035E+02  0.8570E+03
   5.003  0.1642E+02  0.8575E+03
   5.033  0.1448E+02  0.8580E+03
   5.063  0.1391E+02  0.8584E+03
   5.093  0.1291E+02  0.8588E+03
   5.123  0.1516E+02  0.8592E+03
   5.153  0.1849E+02  0.8598E+03
   5.183  0.1679E+02  0.8603E+03
   5.213  0.1497E+02  0.8607E+03
   5.243  0.1389E+02  0.8611E+03
   5.273  0.1777E+02  0.8617E+03
   5.303  0.3015E+02  0.8626E+03
   5.333  0.3419E+02  0.8636E+03
   5.363  0.3543E+02  0.8647E+03
   5.393  0.3452E+02  0.8657E+03
   5.423  0.3826E+02  0.8669E+03
   5.453  0.4438E+02  0.8682E+03
   5.483  0.4785E+02  0.8696E+03
   5.513  0.4256E+02  0.8709E+03
   5.543  0.3738E+02  0.8720E+03
   5.573  0.3903E+02  0.8732E+03
   5.603  0.4766E+02  0.8746E+03
   5.633  0.4681E+02  0.8760E+03
   5.663  0.4384E+02  0.8773E+03
   5.693  0.4556E+02  0.8787E+03
   5.723  0.5089E+02  0.8802E+03
   5.753  0.4675E+02  0.8816E+03
   5.783  0.4142E+02  0.8829E+03
   5.813  0.4045E+02  0.8841E+03
   5.843  0.4110E+02  0.8853E+03
   5.873  0.4580E+02  0.8867E+03
   5.903  0.5024E+02  0.8882E+03
   5.933  0.4424E+02  0.8895E+03
   5.963  0.4333E+02  0.8908E+03
   5.993  0.4278E+02  0.8921E+03
   6.023  0.4436E+02  0.8934E+03
   6.053  0.4624E+02  0.8948E+03
   6.083  0.5631E+02  0.8965E+03
   6.113  0.6443E+02  0.8985E+03
   6.143  0.6118E+02  0.9003E+03
   6.173  0.5606E+02  0.9020E+03
   6.203  0.6246E+02  0.9038E+03
   6.233  0.6344E+02  0.9058E+03
   6.263  0.6366E+02  0.9077E+03
   6.293  0.6687E+02  0.9097E+03
   6.323  0.7959E+02  0.9121E+03
   6.353  0.7676E+02  0.9144E+03
   6.383  0.7696E+02  0.9167E+03
   6.413  0.7011E+02  0.9188E+03
   6.443  0.7015E+02  0.9209E+03
   6.473  0.6765E+02  0.9229E+03
   6.503  0.6446E+02  0.9248E+03
   6.533  0.6560E+02  0.9268E+03
   6.563  0.7265E+02  0.9290E+03
   6.593  0.6565E+02  0.9310E+03
   6.623  0.5608E+02  0.9326E+03
   6.653  0.5029E+02  0.9341E+03
   6.683  0.4385E+02  0.9355E+03
   6.713  0.5295E+02  0.9370E+03
   6.743  0.5228E+02  0.9386E+03
   6.773  0.4917E+02  0.9401E+03
   6.803  0.5237E+02  0.9417E+03
   6.833  0.4835E+02  0.9431E+03
   6.863  0.5699E+02  0.9448E+03
   6.893  0.6260E+02  0.9467E+03
   6.923  0.6000E+02  0.9485E+03
   6.953  0.6802E+02  0.9505E+03
   6.983  0.6014E+02  0.9523E+03
   7.013  0.5268E+02  0.9539E+03
   7.043  0.6293E+02  0.9558E+03
   7.073  0.7399E+02  0.9580E+03
   7.103  0.6798E+02  0.9601E+03
   7.133  0.7458E+02  0.9623E+03
   7.163  0.7319E+02  0.9645E+03
   7.193  0.5860E+02  0.9663E+03
   7.223  0.6280E+02  0.9681E+03
   7.253  0.7180E+02  0.9703E+03
   7.283  0.6896E+02  0.9724E+03
   7.313  0.6394E+02  0.9743E+03
   7.343  0.6539E+02  0.9763E+03
   7.373  0.6891E+02  0.9783E+03
   7.403  0.7443E+02  0.9806E+03
   7.433  0.8529E+02  0.9831E+03
   7.463  0.9870E+02  0.9861E+03
   7.493  0.1107E+03  0.9894E+03
   7.523  0.1006E+03  0.9924E+03
   7.553  0.7755E+02  0.9947E+03
   7.583  0.6084E+02  0.9966E+03
   7.613  0.5081E+02  0.9981E+03
   7.643  0.3639E+02  0.9992E+03
   7.673  0.1831E+02  0.9997E+03
   7.703  0.8008E+01  0.1000E+04
   7.733  0.1046E+01  0.1000E+04
   7.763  0.2383E-01  0.1000E+04
