# total density of states output by FHI-aims 
# The energy reference for this output is the vacuum level
#    Energy (eV)      DOS 
        -10.00000000         33.48204984
         -9.99000000         45.39388605
         -9.98000000         41.85279412
         -9.97000000         39.56448588
         -9.96000000         42.74918860
         -9.95000000         34.47704487
         -9.94000000         32.98619477
         -9.93000000         24.18280864
         -9.92000000         24.60352715
         -9.91000000         30.75698264
         -9.90000000         35.16997107
         -9.89000000         56.41875065
         -9.88000000         37.38181997
         -9.87000000         42.21774357
         -9.86000000         47.12492017
         -9.85000000         40.26633565
         -9.84000000         36.08658274
         -9.83000000         33.56671049
         -9.82000000         30.98506389
         -9.81000000         31.67466563
         -9.80000000         31.97362038
         -9.79000000         29.11151300
         -9.78000000         37.61652017
         -9.77000000         22.60367092
         -9.76000000         20.38726929
         -9.75000000         18.17086766
         -9.74000000         27.07384843
         -9.73000000         31.15820477
         -9.72000000         37.36488318
         -9.71000000         39.18908371
         -9.70000000         34.72475931
         -9.69000000         31.65665386
         -9.68000000         28.75942287
         -9.67000000         27.95364399
         -9.66000000         26.36873303
         -9.65000000         27.77460808
         -9.64000000         29.18048313
         -9.63000000         32.64702815
         -9.62000000         36.98540264
         -9.61000000         26.27401634
         -9.60000000         51.53021965
         -9.59000000         77.12828005
         -9.58000000         60.96940315
         -9.57000000         55.44402484
         -9.56000000         31.79045174
         -9.55000000         50.76293071
         -9.54000000         71.70612451
         -9.53000000         64.14065933
         -9.52000000        103.52937462
         -9.51000000        152.65845224
         -9.50000000         53.94991738
         -9.49000000         57.39135496
         -9.48000000         75.51143429
         -9.47000000        101.35144536
         -9.46000000         92.10454482
         -9.45000000        114.96531102
         -9.44000000         63.22567983
         -9.43000000         38.54168812
         -9.42000000         51.95198944
         -9.41000000         89.23278598
         -9.40000000         83.13182109
         -9.39000000        111.19789468
         -9.38000000         94.56713104
         -9.37000000         44.09340059
         -9.36000000        102.25561764
         -9.35000000         72.43053851
         -9.34000000         82.71989034
         -9.33000000        102.15348478
         -9.32000000         83.97419399
         -9.31000000         84.33030126
         -9.30000000         80.58140035
         -9.29000000         77.34328396
         -9.28000000         57.90834820
         -9.27000000         52.43877230
         -9.26000000         67.74073338
         -9.25000000         50.46162875
         -9.24000000         44.09090197
         -9.23000000         48.04054287
         -9.22000000         63.14985648
         -9.21000000         45.86199302
         -9.20000000         51.26024570
         -9.19000000         57.37325262
         -9.18000000         60.62197342
         -9.17000000         55.93452787
         -9.16000000         51.74132858
         -9.15000000         58.89768982
         -9.14000000         48.13049731
         -9.13000000         81.15154289
         -9.12000000         31.27396166
         -9.11000000         30.75689424
         -9.10000000         44.28104833
         -9.09000000         48.74134229
         -9.08000000         50.47823544
         -9.07000000         36.74573477
         -9.06000000         52.08807831
         -9.05000000         84.58446715
         -9.04000000         56.25205169
         -9.03000000         99.35292726
         -9.02000000         40.42941123
         -9.01000000         49.99979091
         -9.00000000         57.83689568
         -8.99000000         44.80995851
         -8.98000000         30.97890290
         -8.97000000         47.76022766
         -8.96000000         64.28617520
         -8.95000000         47.49042324
         -8.94000000         56.54760702
         -8.93000000         57.59975201
         -8.92000000         36.26456431
         -8.91000000         22.64652789
         -8.90000000        105.74433275
         -8.89000000         72.17180325
         -8.88000000         29.35811426
         -8.87000000         42.54448013
         -8.86000000         29.65799474
         -8.85000000         34.38928879
         -8.84000000         36.33937270
         -8.83000000         40.16446328
         -8.82000000         41.75712095
         -8.81000000         44.83800096
         -8.80000000         47.19883831
         -8.79000000         44.81375097
         -8.78000000         41.47761840
         -8.77000000         39.82391689
         -8.76000000         45.76028836
         -8.75000000         36.35996304
         -8.74000000         47.15033949
         -8.73000000         36.13609176
         -8.72000000         41.52283800
         -8.71000000         31.19156310
         -8.70000000         46.01694974
         -8.69000000         47.38948879
         -8.68000000         39.20259836
         -8.67000000         31.78332924
         -8.66000000         53.54625116
         -8.65000000         59.65521295
         -8.64000000         52.80266949
         -8.63000000         14.34054922
         -8.62000000         19.60049296
         -8.61000000         34.06968662
         -8.60000000         33.87676862
         -8.59000000         38.98501795
         -8.58000000         37.87613398
         -8.57000000         34.29145838
         -8.56000000         27.93986885
         -8.55000000         28.55191328
         -8.54000000         27.55247293
         -8.53000000         25.53898483
         -8.52000000         28.89766275
         -8.51000000         50.31610243
         -8.50000000         61.92522369
         -8.49000000         38.36074799
         -8.48000000         53.26995375
         -8.47000000         40.51759128
         -8.46000000         40.94933956
         -8.45000000         42.81213966
         -8.44000000         35.40432422
         -8.43000000         44.73895688
         -8.42000000         57.33826037
         -8.41000000         26.29871472
         -8.40000000         51.71426357
         -8.39000000         64.48623427
         -8.38000000         48.16550226
         -8.37000000         28.20154419
         -8.36000000         28.92802898
         -8.35000000         50.03271820
         -8.34000000         25.96142053
         -8.33000000         45.30084153
         -8.32000000         53.36111252
         -8.31000000         41.13556587
         -8.30000000         54.84753050
         -8.29000000         59.55416400
         -8.28000000         56.10456417
         -8.27000000         58.51781976
         -8.26000000         77.88808524
         -8.25000000         63.51462411
         -8.24000000         47.63712922
         -8.23000000         33.62717892
         -8.22000000         25.18367269
         -8.21000000         86.81725590
         -8.20000000         85.76325030
         -8.19000000         36.60153845
         -8.18000000         43.68844490
         -8.17000000         57.46733833
         -8.16000000         95.18989408
         -8.15000000         37.24885717
         -8.14000000         39.95065039
         -8.13000000         94.58702683
         -8.12000000         66.53674948
         -8.11000000         87.66669246
         -8.10000000         67.07350122
         -8.09000000        129.89850776
         -8.08000000        102.24202965
         -8.07000000         99.59755169
         -8.06000000        120.95196377
         -8.05000000         98.97126516
         -8.04000000         83.55209716
         -8.03000000        105.14249294
         -8.02000000         81.45345766
         -8.01000000         84.19502462
         -8.00000000        102.57669646
         -7.99000000         94.21184430
         -7.98000000         96.68829437
         -7.97000000        101.67798148
         -7.96000000         76.61154661
         -7.95000000         62.69759502
         -7.94000000        106.38680120
         -7.93000000         55.44388297
         -7.92000000         82.01743487
         -7.91000000         66.35125976
         -7.90000000         56.77671501
         -7.89000000         70.95833994
         -7.88000000         67.12349091
         -7.87000000         70.83704633
         -7.86000000         79.48062029
         -7.85000000         73.58633535
         -7.84000000         88.06867396
         -7.83000000         70.47088742
         -7.82000000         68.70694089
         -7.81000000         63.53545960
         -7.80000000         76.25192675
         -7.79000000         68.69055487
         -7.78000000         67.15664231
         -7.77000000         54.04379566
         -7.76000000         49.47633753
         -7.75000000         86.03452370
         -7.74000000         73.23026384
         -7.73000000         54.62451741
         -7.72000000         78.42670731
         -7.71000000         51.96699334
         -7.70000000        162.32192360
         -7.69000000         78.52988448
         -7.68000000         74.36485341
         -7.67000000         44.45179258
         -7.66000000         85.91858899
         -7.65000000         45.50377406
         -7.64000000         28.51716850
         -7.63000000         46.15219168
         -7.62000000         70.94444396
         -7.61000000         81.94777613
         -7.60000000         65.95596891
         -7.59000000         63.84793819
         -7.58000000         67.40514217
         -7.57000000         59.33903000
         -7.56000000         52.22433129
         -7.55000000         63.67154975
         -7.54000000         47.64530699
         -7.53000000         46.84452718
         -7.52000000         42.81821778
         -7.51000000         52.47643445
         -7.50000000         48.15310747
         -7.49000000         37.47090244
         -7.48000000         43.66161644
         -7.47000000         56.75695792
         -7.46000000         42.64949833
         -7.45000000         47.92442013
         -7.44000000         37.74871658
         -7.43000000         41.34638503
         -7.42000000         42.40120184
         -7.41000000         42.35964764
         -7.40000000         44.13866094
         -7.39000000         53.51930395
         -7.38000000         60.57208882
         -7.37000000         42.27754121
         -7.36000000         49.38045705
         -7.35000000         53.82523914
         -7.34000000         62.15558479
         -7.33000000         77.45249731
         -7.32000000         44.25014551
         -7.31000000         56.45503188
         -7.30000000         59.39948731
         -7.29000000         51.20164282
         -7.28000000         51.46403573
         -7.27000000         42.15238801
         -7.26000000         51.08971888
         -7.25000000         49.56019612
         -7.24000000         64.82592034
         -7.23000000         53.66361761
         -7.22000000         42.12733712
         -7.21000000         55.95582466
         -7.20000000         38.88586998
         -7.19000000         50.57749150
         -7.18000000         53.50869179
         -7.17000000         25.81548384
         -7.16000000         31.59792210
         -7.15000000         31.87368867
         -7.14000000         95.96535415
         -7.13000000         72.89511486
         -7.12000000         31.35883038
         -7.11000000         50.31673517
         -7.10000000         81.30737920
         -7.09000000         70.84151103
         -7.08000000          6.02373086
         -7.07000000         31.65576151
         -7.06000000         42.83074639
         -7.05000000         75.98372831
         -7.04000000         61.70764974
         -7.03000000         49.20701530
         -7.02000000         44.79663190
         -7.01000000         75.41963340
         -7.00000000         57.52981735
         -6.99000000         51.88157998
         -6.98000000         51.32480975
         -6.97000000         56.24041016
         -6.96000000         17.77488157
         -6.95000000         47.95949065
         -6.94000000         55.97203066
         -6.93000000         36.82498646
         -6.92000000         50.24575442
         -6.91000000         14.27492538
         -6.90000000         48.49120674
         -6.89000000         37.13230446
         -6.88000000         42.96036293
         -6.87000000         55.50057874
         -6.86000000         43.85193759
         -6.85000000         41.15359258
         -6.84000000         50.62195544
         -6.83000000         44.78215832
         -6.82000000         42.08917810
         -6.81000000         51.88698878
         -6.80000000         83.35704716
         -6.79000000         68.89450783
         -6.78000000         55.16212203
         -6.77000000         64.62123216
         -6.76000000         37.29416638
         -6.75000000         65.87029262
         -6.74000000        273.03891605
         -6.73000000        162.78942874
         -6.72000000         50.69706888
         -6.71000000         40.52763408
         -6.70000000        143.01983525
         -6.69000000         66.08532974
         -6.68000000         42.60221214
         -6.67000000         63.75462939
         -6.66000000         80.54877460
         -6.65000000         62.30186976
         -6.64000000         53.23789085
         -6.63000000         59.18070848
         -6.62000000         58.38973297
         -6.61000000         82.28982901
         -6.60000000         70.91138937
         -6.59000000         35.84765345
         -6.58000000         85.14377336
         -6.57000000         59.60438550
         -6.56000000         46.90810018
         -6.55000000         69.13983795
         -6.54000000         62.31189287
         -6.53000000         52.90141467
         -6.52000000         46.47928924
         -6.51000000         53.42834507
         -6.50000000         42.33526670
         -6.49000000         68.87411990
         -6.48000000         51.17694314
         -6.47000000         42.72619363
         -6.46000000         72.20654817
         -6.45000000         55.22423113
         -6.44000000         62.09578346
         -6.43000000         66.82753105
         -6.42000000         56.75959851
         -6.41000000         38.26235716
         -6.40000000         81.61658501
         -6.39000000         76.38085869
         -6.38000000         51.38414590
         -6.37000000         65.83598831
         -6.36000000         51.88413890
         -6.35000000         39.74477321
         -6.34000000        139.91479239
         -6.33000000         33.05630675
         -6.32000000         11.53058108
         -6.31000000         68.24402442
         -6.30000000         47.40915622
         -6.29000000         48.81818927
         -6.28000000         32.85487504
         -6.27000000         41.61292462
         -6.26000000         34.42516194
         -6.25000000         31.41342754
         -6.24000000         60.22660266
         -6.23000000         62.44576795
         -6.22000000         49.87675692
         -6.21000000         13.73520441
         -6.20000000         24.09463462
         -6.19000000         28.22913332
         -6.18000000         32.36363202
         -6.17000000         70.16984228
         -6.16000000         20.32148537
         -6.15000000         15.33442133
         -6.14000000         13.16723624
         -6.13000000         13.56497615
         -6.12000000         13.52614520
         -6.11000000         27.60191155
         -6.10000000         25.09209555
         -6.09000000         22.58227956
         -6.08000000         39.55337146
         -6.07000000         41.65976237
         -6.06000000         55.24467896
         -6.05000000         12.12197432
         -6.04000000         18.88274621
         -6.03000000         28.89092180
         -6.02000000        129.44913275
         -6.01000000         41.74062002
         -6.00000000         32.93459698
         -5.99000000          9.56151281
         -5.98000000          0.00000000
         -5.97000000          0.00000000
         -5.96000000          0.00000000
         -5.95000000          0.00000000
         -5.94000000          0.00000000
         -5.93000000         65.66217134
         -5.92000000         88.28735482
         -5.91000000          9.95041327
         -5.90000000         16.34062069
         -5.89000000         41.03407532
         -5.88000000         28.13041958
         -5.87000000         13.57301801
         -5.86000000         10.36754456
         -5.85000000          9.16022309
         -5.84000000          8.54399445
         -5.83000000          7.92776581
         -5.82000000          7.31153718
         -5.81000000          6.69530854
         -5.80000000          6.07907990
         -5.79000000          5.46285127
         -5.78000000          4.84662263
         -5.77000000         22.74524371
         -5.76000000          0.00000000
         -5.75000000          0.00000000
         -5.74000000          0.00000000
         -5.73000000          0.00000000
         -5.72000000          0.00000000
         -5.71000000          0.00000000
         -5.70000000          0.00000000
         -5.69000000          0.00000000
         -5.68000000          0.00000000
         -5.67000000          0.00000000
         -5.66000000          0.00000000
         -5.65000000          0.00000000
         -5.64000000          0.00000000
         -5.63000000          0.00000000
         -5.62000000          0.00000000
         -5.61000000          0.00000000
         -5.60000000          0.00000000
         -5.59000000          0.00000000
         -5.58000000          0.00000000
         -5.57000000          0.00000000
         -5.56000000          0.00000000
         -5.55000000          0.00000000
         -5.54000000          0.00000000
         -5.53000000          0.00000000
         -5.52000000          0.00000000
         -5.51000000          0.00000000
         -5.50000000          0.00000000
         -5.49000000          0.00000000
         -5.48000000          0.00000000
         -5.47000000          0.00000000
         -5.46000000          0.00000000
         -5.45000000          0.00000000
         -5.44000000          0.00000000
         -5.43000000          0.00000000
         -5.42000000          0.00000000
         -5.41000000          0.00000000
         -5.40000000          0.00000000
         -5.39000000          0.00000000
         -5.38000000          0.00000000
         -5.37000000          0.00000000
         -5.36000000          0.00000000
         -5.35000000          0.00000000
         -5.34000000          0.00000000
         -5.33000000          0.00000000
         -5.32000000          0.00000000
         -5.31000000          0.00000000
         -5.30000000          0.00000000
         -5.29000000          0.00000000
         -5.28000000          0.00000000
         -5.27000000          0.00000000
         -5.26000000          0.00000000
         -5.25000000          0.00000000
         -5.24000000          0.00000000
         -5.23000000          0.00000000
         -5.22000000          0.00000000
         -5.21000000          0.00000000
         -5.20000000          0.00000000
         -5.19000000          0.00000000
         -5.18000000          0.00000000
         -5.17000000          0.00000000
         -5.16000000          0.00000000
         -5.15000000          0.00000000
         -5.14000000          0.00000000
         -5.13000000          0.00000000
         -5.12000000          0.00000000
         -5.11000000          0.00000000
         -5.10000000          0.00000000
         -5.09000000          0.00000000
         -5.08000000          0.00000000
         -5.07000000          0.00000000
         -5.06000000          0.00000000
         -5.05000000          0.00000000
         -5.04000000          0.00000000
         -5.03000000          0.00000000
         -5.02000000          0.00000000
         -5.01000000          0.00000000
         -5.00000000          0.00000000
         -4.99000000          0.00000000
         -4.98000000          0.00000000
         -4.97000000          0.00000000
         -4.96000000          0.00000000
         -4.95000000          0.00000000
         -4.94000000          0.00000000
         -4.93000000          0.00000000
         -4.92000000          0.00000000
         -4.91000000          0.00000000
         -4.90000000          0.00000000
         -4.89000000          0.00000000
         -4.88000000          0.00000000
         -4.87000000          0.00000000
         -4.86000000          0.00000000
         -4.85000000          0.00000000
         -4.84000000          0.00000000
         -4.83000000          0.00000000
         -4.82000000          0.00000000
         -4.81000000          0.00000000
         -4.80000000          0.00000000
         -4.79000000          0.00000000
         -4.78000000          0.00000000
         -4.77000000          0.00000000
         -4.76000000          0.00000000
         -4.75000000          0.00000000
         -4.74000000          0.00000000
         -4.73000000          0.00000000
         -4.72000000          0.00000000
         -4.71000000          0.00000000
         -4.70000000          0.00000000
         -4.69000000          0.00000000
         -4.68000000          0.00000000
         -4.67000000          0.00000000
         -4.66000000          0.00000000
         -4.65000000          0.00000000
         -4.64000000          0.00000000
         -4.63000000          0.00000000
         -4.62000000          0.00000000
         -4.61000000          0.00000000
         -4.60000000          0.00000000
         -4.59000000          0.00000000
         -4.58000000          0.00000000
         -4.57000000          0.00000000
         -4.56000000          0.00000000
         -4.55000000          0.00000000
         -4.54000000          0.00000000
         -4.53000000          0.00000000
         -4.52000000          0.00000000
         -4.51000000        148.37101356
         -4.50000000          0.00000000
         -4.49000000          0.00000000
         -4.48000000          0.00000000
         -4.47000000         38.85471301
         -4.46000000        130.21735264
         -4.45000000          0.00000000
         -4.44000000          0.00000000
         -4.43000000          0.00000000
         -4.42000000          0.00000000
         -4.41000000          0.00000000
         -4.40000000          0.00000000
         -4.39000000          0.00000000
         -4.38000000          0.00000000
         -4.37000000          0.00000000
         -4.36000000          0.00000000
         -4.35000000          0.00000000
         -4.34000000          0.00000000
         -4.33000000          0.00000000
         -4.32000000          0.00000000
         -4.31000000          0.00000000
         -4.30000000          0.00000000
         -4.29000000          0.00000000
         -4.28000000          0.00000000
         -4.27000000          0.00000000
         -4.26000000          0.00000000
         -4.25000000          0.00000000
         -4.24000000          0.00000000
         -4.23000000          0.00000000
         -4.22000000          0.00000000
         -4.21000000          0.00000000
         -4.20000000          0.00000000
         -4.19000000          0.00000000
         -4.18000000          0.00000000
         -4.17000000          0.00000000
         -4.16000000          0.00000000
         -4.15000000          0.00000000
         -4.14000000          0.00000000
         -4.13000000         86.93911295
         -4.12000000        178.02350537
         -4.11000000          0.00000000
         -4.10000000          0.00000000
         -4.09000000          0.00000000
         -4.08000000          0.00000000
         -4.07000000          0.00000000
         -4.06000000          0.00000000
         -4.05000000          0.00000000
         -4.04000000          0.00000000
         -4.03000000          0.00000000
         -4.02000000          0.00000000
         -4.01000000          0.00000000
         -4.00000000          0.00000000
         -3.99000000          0.00000000
         -3.98000000          0.24677169
         -3.97000000          5.49567426
         -3.96000000         13.41634671
         -3.95000000         31.94770963
         -3.94000000         37.31251497
         -3.93000000         32.34232144
         -3.92000000         39.37838838
         -3.91000000         39.50869673
         -3.90000000          0.00000000
         -3.89000000          0.00000000
         -3.88000000          0.00000000
         -3.87000000          0.00000000
         -3.86000000          8.66161016
         -3.85000000         18.27827933
         -3.84000000         17.84648419
         -3.83000000         17.55155321
         -3.82000000         17.24979151
         -3.81000000         16.73620091
         -3.80000000         15.85999681
         -3.79000000         14.69453541
         -3.78000000         12.97073473
         -3.77000000         12.13908005
         -3.76000000         11.30742538
         -3.75000000         15.33105207
         -3.74000000         22.81969228
         -3.73000000         24.10637509
         -3.72000000         29.98218318
         -3.71000000         40.48539089
         -3.70000000         30.12715995
         -3.69000000         20.49400317
         -3.68000000         33.75169128
         -3.67000000         54.80264412
         -3.66000000         66.43855999
         -3.65000000         38.87663086
         -3.64000000         34.75939919
         -3.63000000         51.22767307
         -3.62000000         88.34858342
         -3.61000000         70.97049663
         -3.60000000         83.38843557
         -3.59000000         97.95885879
         -3.58000000        191.55573466
         -3.57000000         72.55929572
         -3.56000000         96.56719590
         -3.55000000         74.97105664
         -3.54000000        167.26645901
         -3.53000000         83.12899267
         -3.52000000        351.31349442
         -3.51000000        102.25719183
         -3.50000000        356.08832730
         -3.49000000        102.59100500
         -3.48000000         40.19248389
         -3.47000000        161.24151063
         -3.46000000         68.87920361
         -3.45000000         50.92127866
         -3.44000000         41.00865641
         -3.43000000        104.21437126
         -3.42000000         80.84173671
         -3.41000000         58.59166680
         -3.40000000         89.83294211
         -3.39000000         51.93661443
         -3.38000000         76.63779007
         -3.37000000         74.75174728
         -3.36000000         62.87579716
         -3.35000000         49.71171377
         -3.34000000         70.39001122
         -3.33000000         77.97513416
         -3.32000000         47.06777972
         -3.31000000         69.92169082
         -3.30000000         72.45612183
         -3.29000000         36.82092520
         -3.28000000         36.35946892
         -3.27000000        143.71205911
         -3.26000000         67.19092057
         -3.25000000         73.87909146
         -3.24000000         54.91967870
         -3.23000000         75.58033807
         -3.22000000         39.88217094
         -3.21000000         49.16911027
         -3.20000000         50.73529169
         -3.19000000         25.05236004
         -3.18000000        100.27187619
         -3.17000000        105.38914214
         -3.16000000         28.77525870
         -3.15000000         30.11105860
         -3.14000000         35.70559709
         -3.13000000         45.47076827
         -3.12000000         55.69362405
         -3.11000000         64.54158728
         -3.10000000         64.04448442
         -3.09000000         61.31777442
         -3.08000000         67.28621180
         -3.07000000         64.24835146
         -3.06000000         69.39880550
         -3.05000000         64.03429983
         -3.04000000         77.16996536
         -3.03000000         74.77621286
         -3.02000000         75.25935390
         -3.01000000         86.52928511
         -3.00000000         64.44763782
         -2.99000000         80.64439034
         -2.98000000        115.79561252
         -2.97000000        122.09386482
         -2.96000000        122.88911715
         -2.95000000         99.98474161
         -2.94000000         89.30305097
         -2.93000000        103.14529475
         -2.92000000         92.29780360
         -2.91000000         93.33625666
         -2.90000000        178.16602316
         -2.89000000         88.40912761
         -2.88000000         84.26349665
         -2.87000000         94.77587410
         -2.86000000        113.24485959
         -2.85000000         59.43025740
         -2.84000000         83.21276875
         -2.83000000         73.86159621
         -2.82000000         65.24850738
         -2.81000000        120.88575989
         -2.80000000         88.67234607
         -2.79000000         97.43395150
         -2.78000000         67.88611887
         -2.77000000         83.64215569
         -2.76000000         80.88914068
         -2.75000000        115.59708547
         -2.74000000         76.44120096
         -2.73000000         65.53826197
         -2.72000000         81.97874335
         -2.71000000         79.75195121
         -2.70000000         74.45741962
         -2.69000000         88.46115735
         -2.68000000         71.29153177
         -2.67000000         80.76644573
         -2.66000000        126.78880831
         -2.65000000         87.06439109
         -2.64000000         59.91551328
         -2.63000000        122.19949893
         -2.62000000         54.28933249
         -2.61000000         66.64702007
         -2.60000000         48.39251749
         -2.59000000         56.37247886
         -2.58000000         53.98914038
         -2.57000000         48.66423387
         -2.56000000         59.35177331
         -2.55000000         63.52484222
         -2.54000000         67.50806873
         -2.53000000        116.36304640
         -2.52000000         89.32072928
         -2.51000000         60.16669033
         -2.50000000        121.05287410
         -2.49000000         65.48451125
         -2.48000000        106.31960127
         -2.47000000         77.38184666
         -2.46000000         73.14028896
         -2.45000000        128.78804962
         -2.44000000         65.86073082
         -2.43000000         52.57968748
         -2.42000000         81.09314132
         -2.41000000         69.12774870
         -2.40000000         57.38340029
         -2.39000000         88.82055397
         -2.38000000         47.10541455
         -2.37000000         42.33937452
         -2.36000000         38.84157091
         -2.35000000         35.34376729
         -2.34000000         75.86560317
         -2.33000000         73.02856740
         -2.32000000         56.58425082
         -2.31000000         55.67969501
         -2.30000000         41.83852708
         -2.29000000         27.70552153
         -2.28000000         41.63650066
         -2.27000000         36.03286179
         -2.26000000         80.47488817
         -2.25000000         52.22887860
         -2.24000000         35.72863188
         -2.23000000         43.28336221
         -2.22000000         66.67821587
         -2.21000000        133.13751543
         -2.20000000         80.73328481
         -2.19000000         74.46005128
         -2.18000000         71.07821481
         -2.17000000         52.58829310
         -2.16000000         87.20236168
         -2.15000000          8.00992898
         -2.14000000          2.57966019
         -2.13000000          3.35674634
         -2.12000000         59.54348566
         -2.11000000         36.04567525
         -2.10000000         31.55092015
         -2.09000000         34.80731763
         -2.08000000         28.10470033
         -2.07000000         30.70934522
         -2.06000000         34.12255955
         -2.05000000         47.09156115
         -2.04000000         52.14398476
         -2.03000000         57.74894491
         -2.02000000         60.56369822
         -2.01000000         52.16659698
         -2.00000000         34.53889480
         -1.99000000         83.64408643
         -1.98000000         75.27353509
         -1.97000000         46.00685883
         -1.96000000         76.08155015
         -1.95000000         31.18467206
         -1.94000000         38.27811425
         -1.93000000         45.70096270
         -1.92000000         34.52748320
         -1.91000000         28.92425476
         -1.90000000         10.61991251
         -1.89000000         72.31360873
         -1.88000000         41.01913770
         -1.87000000         29.72988330
         -1.86000000         23.95146112
         -1.85000000         31.66008319
         -1.84000000         28.80692366
         -1.83000000         20.65848052
         -1.82000000         43.43581698
         -1.81000000         18.77028340
         -1.80000000         19.10462157
         -1.79000000         30.49880050
         -1.78000000         36.98852070
         -1.77000000         37.69532143
         -1.76000000         39.97044361
         -1.75000000         40.53973952
         -1.74000000         40.32219714
         -1.73000000         54.96624028
         -1.72000000         39.68351939
         -1.71000000         37.10570964
         -1.70000000         40.95152701
         -1.69000000         36.75343247
         -1.68000000         28.09893684
         -1.67000000         19.08861562
         -1.66000000         13.37933685
         -1.65000000          7.96695235
         -1.64000000         14.36070655
         -1.63000000         32.84588942
         -1.62000000         38.58543795
         -1.61000000        100.62790134
         -1.60000000         70.27462744
         -1.59000000         82.00574765
         -1.58000000         42.88010922
         -1.57000000         38.30163547
         -1.56000000          1.99291849
         -1.55000000          6.89469005
         -1.54000000         15.04038163
         -1.53000000         23.47901522
         -1.52000000         57.51106504
         -1.51000000         27.81921891
         -1.50000000         59.54880264
         -1.49000000         60.49572863
         -1.48000000         45.15100769
         -1.47000000         27.87824875
         -1.46000000         20.11495444
         -1.45000000         23.64804501
         -1.44000000         28.64232613
         -1.43000000         32.11106536
         -1.42000000         28.99303737
         -1.41000000         22.64920588
         -1.40000000         21.76997811
         -1.39000000         20.89075035
         -1.38000000         20.01152259
         -1.37000000         19.31019954
         -1.36000000         20.62613517
         -1.35000000         22.98431694
         -1.34000000         22.55573419
         -1.33000000         27.26472478
         -1.32000000         22.26665650
         -1.31000000         23.83466248
         -1.30000000         24.55026704
         -1.29000000         30.16756688
         -1.28000000         91.00671696
         -1.27000000         65.18159281
         -1.26000000         43.41791746
         -1.25000000         40.71884765
         -1.24000000         57.21776233
         -1.23000000         34.05086805
         -1.22000000         54.61964586
         -1.21000000         53.88631332
         -1.20000000         79.77871354
         -1.19000000         21.97090418
         -1.18000000         18.16467948
         -1.17000000         19.89649893
         -1.16000000         30.86820566
         -1.15000000         41.18541123
         -1.14000000         64.44105158
         -1.13000000         23.82406910
         -1.12000000         20.08127797
         -1.11000000         18.90461859
         -1.10000000         24.73820918
         -1.09000000         50.87438191
         -1.08000000         70.22487058
         -1.07000000         84.09003470
         -1.06000000          9.61675793
         -1.05000000          5.92872728
         -1.04000000         58.03431601
         -1.03000000         26.17816446
         -1.02000000         36.15699147
         -1.01000000        206.71578774
         -1.00000000         29.80853798
         -0.99000000         33.01194591
         -0.98000000         40.68865877
         -0.97000000         50.70886631
         -0.96000000         66.24593984
         -0.95000000         64.56932339
         -0.94000000         50.96660724
         -0.93000000         58.08293507
         -0.92000000         72.10031826
         -0.91000000         62.42843561
         -0.90000000        102.47222277
         -0.89000000         80.75659886
         -0.88000000         90.28969704
         -0.87000000        108.45308304
         -0.86000000         85.15513356
         -0.85000000         90.03481456
         -0.84000000         93.24365213
         -0.83000000         83.07183208
         -0.82000000         63.14259395
         -0.81000000         51.02076693
         -0.80000000         42.41046919
         -0.79000000         35.51216088
         -0.78000000         27.94045098
         -0.77000000         21.64223451
         -0.76000000         24.71963589
         -0.75000000         39.78186057
         -0.74000000         28.19277905
         -0.73000000         43.09149942
         -0.72000000         34.21606290
         -0.71000000         33.55823165
         -0.70000000         22.54415584
         -0.69000000          5.03022363
         -0.68000000          0.00000000
         -0.67000000         23.80555616
         -0.66000000         49.07050164
         -0.65000000         31.40601656
         -0.64000000         25.21883026
         -0.63000000         20.40388244
         -0.62000000          9.11675126
         -0.61000000          9.14103050
         -0.60000000         10.54630440
         -0.59000000         12.34893669
         -0.58000000         14.15156897
         -0.57000000         11.27014176
         -0.56000000         33.94219372
         -0.55000000         30.48148339
         -0.54000000         30.48982217
         -0.53000000         28.52951581
         -0.52000000         30.47759211
         -0.51000000         19.50049522
         -0.50000000          8.27037478
         -0.49000000          9.55537792
         -0.48000000         12.80569420
         -0.47000000         15.55875430
         -0.46000000         19.24191682
         -0.45000000         21.76422582
         -0.44000000         18.76519524
         -0.43000000         15.75816203
         -0.42000000         13.37093296
         -0.41000000         11.92287765
         -0.40000000         10.47482233
         -0.39000000          9.02676702
         -0.38000000          4.57794536
         -0.37000000          0.00000000
         -0.36000000          0.00000000
         -0.35000000          0.00000000
         -0.34000000          0.00000000
         -0.33000000          0.00000000
         -0.32000000          0.00000000
         -0.31000000          0.00000000
         -0.30000000          0.00000000
         -0.29000000          0.00000000
         -0.28000000          0.00000000
         -0.27000000          0.00000000
         -0.26000000          0.00000000
         -0.25000000          0.00000000
         -0.24000000          0.00000000
         -0.23000000          0.00000000
         -0.22000000          0.00000000
         -0.21000000          0.00000000
         -0.20000000          0.00000000
         -0.19000000          0.00000000
         -0.18000000          0.00000000
         -0.17000000          0.00000000
         -0.16000000          0.00000000
         -0.15000000          0.00000000
         -0.14000000          0.00000000
         -0.13000000          0.00000000
         -0.12000000          0.00000000
         -0.11000000          0.00000000
         -0.10000000          0.00000000
         -0.09000000          0.00000000
         -0.08000000          0.00000000
         -0.07000000          0.00000000
         -0.06000000          0.00000000
         -0.05000000          0.00000000
         -0.04000000          0.00000000
         -0.03000000          0.00000000
         -0.02000000          0.00000000
         -0.01000000          0.00000000
          0.00000000          0.00000000
