# total density of states output by FHI-aims 
# The energy reference for this output is the vacuum level
#    Energy (eV)      DOS 
        -10.00000000         88.49272582
         -9.99000000         50.04947839
         -9.98000000         25.75840460
         -9.97000000         32.98861131
         -9.96000000         58.06216316
         -9.95000000         77.98795202
         -9.94000000         51.07232634
         -9.93000000         95.39115779
         -9.92000000         39.27213446
         -9.91000000         13.15251132
         -9.90000000        220.21120972
         -9.89000000         16.94953902
         -9.88000000          4.84917256
         -9.87000000         29.30049924
         -9.86000000         64.42081987
         -9.85000000         41.42965805
         -9.84000000         61.53347337
         -9.83000000         58.51491860
         -9.82000000         38.30810561
         -9.81000000         37.84919128
         -9.80000000         50.81406769
         -9.79000000         36.40707139
         -9.78000000         40.02767291
         -9.77000000         48.70470046
         -9.76000000         52.73139164
         -9.75000000         70.01470778
         -9.74000000         39.65026552
         -9.73000000         25.45914609
         -9.72000000         28.15184954
         -9.71000000         23.59363889
         -9.70000000         41.47308689
         -9.69000000         11.99438758
         -9.68000000          1.72992414
         -9.67000000          8.64962514
         -9.66000000         13.75973880
         -9.65000000         28.81548794
         -9.64000000         37.77359735
         -9.63000000         42.44560616
         -9.62000000         31.90577869
         -9.61000000         19.64290188
         -9.60000000          8.24990742
         -9.59000000         26.48601161
         -9.58000000         52.41564248
         -9.57000000         55.75510165
         -9.56000000         26.56453999
         -9.55000000          7.16394484
         -9.54000000          3.78379151
         -9.53000000          3.46812533
         -9.52000000          3.15245915
         -9.51000000          2.83679298
         -9.50000000          2.52112680
         -9.49000000          4.83113467
         -9.48000000         12.68515572
         -9.47000000         20.29847796
         -9.46000000         26.72816914
         -9.45000000         24.20619257
         -9.44000000         21.68421600
         -9.43000000         19.16223943
         -9.42000000         17.13148795
         -9.41000000         19.39251796
         -9.40000000         24.53572897
         -9.39000000         28.37505001
         -9.38000000         33.80949943
         -9.37000000         32.67632613
         -9.36000000         31.98221993
         -9.35000000         27.48429964
         -9.34000000         27.13857507
         -9.33000000         21.28249571
         -9.32000000          7.99410677
         -9.31000000          8.49857909
         -9.30000000          7.59084870
         -9.29000000         15.13909116
         -9.28000000         22.68733362
         -9.27000000         66.34849859
         -9.26000000         36.66300855
         -9.25000000         23.92296547
         -9.24000000         45.77201061
         -9.23000000        213.34970632
         -9.22000000         59.07228529
         -9.21000000         64.70526505
         -9.20000000        101.33062111
         -9.19000000         99.90007047
         -9.18000000        183.41213083
         -9.17000000        280.45185033
         -9.16000000        117.37966373
         -9.15000000        141.39297507
         -9.14000000        140.23736421
         -9.13000000        250.16671652
         -9.12000000        180.30146630
         -9.11000000        111.10324399
         -9.10000000         76.53598703
         -9.09000000         87.38798257
         -9.08000000        261.09342945
         -9.07000000        117.87957321
         -9.06000000         87.43837852
         -9.05000000         97.69260671
         -9.04000000         77.46805797
         -9.03000000        133.15554572
         -9.02000000         67.25437124
         -9.01000000         33.70054923
         -9.00000000        105.32032821
         -8.99000000         71.79903698
         -8.98000000         72.33575170
         -8.97000000         82.59825420
         -8.96000000         41.03701899
         -8.95000000         72.04167118
         -8.94000000         43.85801678
         -8.93000000         61.35053372
         -8.92000000         91.51833525
         -8.91000000         55.51338419
         -8.90000000         58.09940024
         -8.89000000         49.39613042
         -8.88000000         30.19322295
         -8.87000000         45.67311910
         -8.86000000         34.24626122
         -8.85000000         45.34850603
         -8.84000000         47.61069385
         -8.83000000         53.14063737
         -8.82000000         51.50653333
         -8.81000000         44.61190242
         -8.80000000         38.39197801
         -8.79000000         32.83862687
         -8.78000000         29.14441179
         -8.77000000         46.60124362
         -8.76000000         58.33989031
         -8.75000000         47.01464334
         -8.74000000         38.81257201
         -8.73000000         30.24659990
         -8.72000000         27.17941859
         -8.71000000         32.61917932
         -8.70000000         60.30722387
         -8.69000000         67.49933577
         -8.68000000         38.15762000
         -8.67000000         35.26124617
         -8.66000000         29.93872190
         -8.65000000         32.77971006
         -8.64000000         40.28531505
         -8.63000000         31.19570599
         -8.62000000         32.61633789
         -8.61000000         37.65265564
         -8.60000000         47.93632588
         -8.59000000         51.08617468
         -8.58000000         58.34790235
         -8.57000000         59.59664076
         -8.56000000         57.49993033
         -8.55000000         49.24695987
         -8.54000000         97.82484951
         -8.53000000         73.61901277
         -8.52000000         56.68972058
         -8.51000000         26.67879050
         -8.50000000         72.66389860
         -8.49000000         34.96519793
         -8.48000000         88.45470425
         -8.47000000         91.71704705
         -8.46000000         24.29330708
         -8.45000000        103.32989608
         -8.44000000         75.30196491
         -8.43000000        200.04104510
         -8.42000000         32.27372155
         -8.41000000         67.29289216
         -8.40000000         89.87561343
         -8.39000000         81.86739348
         -8.38000000         75.69782294
         -8.37000000         80.03539052
         -8.36000000         93.28696354
         -8.35000000        155.79665128
         -8.34000000         85.23833714
         -8.33000000         79.26107277
         -8.32000000         90.77457069
         -8.31000000         81.57912999
         -8.30000000         79.87311020
         -8.29000000         81.10851325
         -8.28000000         99.30773232
         -8.27000000         82.44543177
         -8.26000000         84.21130072
         -8.25000000         88.81618217
         -8.24000000         79.98402420
         -8.23000000         66.41528831
         -8.22000000         61.77531894
         -8.21000000         86.42546640
         -8.20000000         61.76124891
         -8.19000000         61.33175323
         -8.18000000        111.13118763
         -8.17000000         58.51613185
         -8.16000000         54.56317772
         -8.15000000         49.93978605
         -8.14000000         73.73304763
         -8.13000000         53.52330072
         -8.12000000         86.23877944
         -8.11000000         53.81481438
         -8.10000000         46.29421435
         -8.09000000         29.67774262
         -8.08000000         64.19361370
         -8.07000000         50.97958529
         -8.06000000         85.76394861
         -8.05000000         68.63274281
         -8.04000000         65.24013053
         -8.03000000         65.56857135
         -8.02000000         86.89848768
         -8.01000000         98.86628231
         -8.00000000         73.34014159
         -7.99000000         69.24406523
         -7.98000000         60.96649312
         -7.97000000         60.38280504
         -7.96000000         68.35529766
         -7.95000000         87.66723309
         -7.94000000         54.86733468
         -7.93000000         32.46905767
         -7.92000000         33.21728383
         -7.91000000         39.93556477
         -7.90000000         39.71037431
         -7.89000000         44.00139551
         -7.88000000         22.74301674
         -7.87000000         54.88716876
         -7.86000000         72.26346125
         -7.85000000         38.28310021
         -7.84000000          9.65385075
         -7.83000000         16.25760302
         -7.82000000         23.94541992
         -7.81000000         32.95440814
         -7.80000000         41.98003075
         -7.79000000         47.05731015
         -7.78000000         48.31849097
         -7.77000000         45.75697182
         -7.76000000         53.95473403
         -7.75000000         50.82460362
         -7.74000000         54.60400798
         -7.73000000         53.66842520
         -7.72000000         32.70137713
         -7.71000000         39.29620138
         -7.70000000         47.89690093
         -7.69000000         52.85070333
         -7.68000000         57.07552709
         -7.67000000         56.29275424
         -7.66000000         40.47338902
         -7.65000000         40.70381441
         -7.64000000         38.08853979
         -7.63000000         49.72909862
         -7.62000000         51.46854152
         -7.61000000         39.21763061
         -7.60000000         28.02342826
         -7.59000000         24.04180578
         -7.58000000         29.40245665
         -7.57000000         39.15774865
         -7.56000000         48.67596021
         -7.55000000         40.09185853
         -7.54000000         54.41013140
         -7.53000000         62.45458632
         -7.52000000         52.52980527
         -7.51000000         45.52532663
         -7.50000000         42.79019212
         -7.49000000         51.00518418
         -7.48000000         55.04626111
         -7.47000000        121.30853126
         -7.46000000         44.41947050
         -7.45000000         79.67665224
         -7.44000000         61.08182211
         -7.43000000         79.88354342
         -7.42000000         59.48172637
         -7.41000000         86.18499855
         -7.40000000         46.85087950
         -7.39000000         69.37163312
         -7.38000000         51.26399759
         -7.37000000         30.67907205
         -7.36000000         86.61421288
         -7.35000000         61.04900592
         -7.34000000         60.38615471
         -7.33000000        155.16227961
         -7.32000000        148.79926540
         -7.31000000        137.90606962
         -7.30000000        181.18614311
         -7.29000000        119.56628876
         -7.28000000        115.91723190
         -7.27000000         86.28745051
         -7.26000000        107.42828670
         -7.25000000        105.12380772
         -7.24000000         79.64939879
         -7.23000000        138.67129835
         -7.22000000         98.10208146
         -7.21000000         87.80783750
         -7.20000000        101.25938722
         -7.19000000        118.25640545
         -7.18000000         92.51890742
         -7.17000000         84.47485526
         -7.16000000        100.96978556
         -7.15000000         92.83490389
         -7.14000000         79.01565197
         -7.13000000         90.81304718
         -7.12000000         79.00887481
         -7.11000000         76.85237638
         -7.10000000         68.52241793
         -7.09000000         77.09041123
         -7.08000000         80.64618758
         -7.07000000         72.87657943
         -7.06000000         70.88342037
         -7.05000000         81.47994335
         -7.04000000         68.13897087
         -7.03000000         64.42377568
         -7.02000000         55.94930379
         -7.01000000         85.61896571
         -7.00000000         86.19202368
         -6.99000000         66.23086529
         -6.98000000        111.48030376
         -6.97000000         56.76835922
         -6.96000000         82.23037939
         -6.95000000         57.17690302
         -6.94000000         93.29915463
         -6.93000000         56.68669081
         -6.92000000         66.09955942
         -6.91000000          0.74541192
         -6.90000000        124.15874350
         -6.89000000         71.62796853
         -6.88000000         69.09814098
         -6.87000000         54.60983454
         -6.86000000         95.23410281
         -6.85000000         87.80568147
         -6.84000000         82.73652561
         -6.83000000         47.45124278
         -6.82000000         93.08926253
         -6.81000000         55.89007549
         -6.80000000         65.36798589
         -6.79000000         64.80478647
         -6.78000000         54.45749542
         -6.77000000         68.41691586
         -6.76000000         55.41519717
         -6.75000000         66.19413278
         -6.74000000         73.21553606
         -6.73000000         53.96855695
         -6.72000000         61.96784597
         -6.71000000         47.00599273
         -6.70000000         51.02162661
         -6.69000000         60.25382164
         -6.68000000         50.62130832
         -6.67000000         45.95578725
         -6.66000000         64.17725617
         -6.65000000         51.29618774
         -6.64000000         47.11116077
         -6.63000000         50.85436555
         -6.62000000         51.06968706
         -6.61000000         63.62246068
         -6.60000000         59.83440058
         -6.59000000         45.67954297
         -6.58000000         55.70790783
         -6.57000000         83.59737047
         -6.56000000         52.69591119
         -6.55000000         36.27500471
         -6.54000000         56.30395012
         -6.53000000         54.88775014
         -6.52000000         42.99265040
         -6.51000000         65.78208216
         -6.50000000         44.12543080
         -6.49000000         68.10604060
         -6.48000000         61.63390074
         -6.47000000         49.42919076
         -6.46000000         75.35882251
         -6.45000000         63.13841742
         -6.44000000         36.27794021
         -6.43000000         70.89734718
         -6.42000000         52.06061417
         -6.41000000         37.71691452
         -6.40000000         71.32876009
         -6.39000000        108.99929812
         -6.38000000        105.50998562
         -6.37000000         83.75133303
         -6.36000000         69.65616102
         -6.35000000         50.46453999
         -6.34000000         74.43123027
         -6.33000000        141.31543288
         -6.32000000         74.17891236
         -6.31000000         21.79358790
         -6.30000000         44.90583395
         -6.29000000         67.45694995
         -6.28000000         41.22485787
         -6.27000000         30.66062005
         -6.26000000         34.59055458
         -6.25000000         49.47903490
         -6.24000000         39.44896931
         -6.23000000         47.81242783
         -6.22000000         46.44336091
         -6.21000000         33.69330352
         -6.20000000         45.63548274
         -6.19000000        114.09979002
         -6.18000000         52.84313118
         -6.17000000         66.79717285
         -6.16000000         82.74187617
         -6.15000000         55.72934229
         -6.14000000         77.97592186
         -6.13000000         55.20804527
         -6.12000000         59.39705693
         -6.11000000         69.30831011
         -6.10000000         64.81241774
         -6.09000000         65.91110974
         -6.08000000         99.85150912
         -6.07000000        107.73296198
         -6.06000000         37.63198222
         -6.05000000         89.32813919
         -6.04000000         38.33616687
         -6.03000000         93.68642795
         -6.02000000         26.72283182
         -6.01000000         85.93678137
         -6.00000000         79.33516145
         -5.99000000         65.30839178
         -5.98000000         92.86727692
         -5.97000000        123.94756863
         -5.96000000         83.32638043
         -5.95000000         75.60503009
         -5.94000000         66.85167690
         -5.93000000         76.99052329
         -5.92000000         70.19094361
         -5.91000000         61.49994606
         -5.90000000         52.74389642
         -5.89000000         53.03824888
         -5.88000000         64.42056610
         -5.87000000         58.69517013
         -5.86000000         63.12917077
         -5.85000000         72.50312266
         -5.84000000         77.60677044
         -5.83000000        102.66226150
         -5.82000000         55.85796095
         -5.81000000        112.88322924
         -5.80000000         87.27155383
         -5.79000000         72.69625334
         -5.78000000         46.35068122
         -5.77000000         94.24451022
         -5.76000000         93.33140920
         -5.75000000         30.32260646
         -5.74000000         91.64167032
         -5.73000000         54.84982459
         -5.72000000         74.73013778
         -5.71000000         43.21699292
         -5.70000000         59.86266220
         -5.69000000         36.16877627
         -5.68000000         27.28936447
         -5.67000000         32.37088166
         -5.66000000         26.57465955
         -5.65000000         64.88569780
         -5.64000000         55.47202595
         -5.63000000         64.92398439
         -5.62000000         23.05737508
         -5.61000000         24.46754975
         -5.60000000         25.57666686
         -5.59000000         27.53522126
         -5.58000000         40.39432714
         -5.57000000         60.76170878
         -5.56000000         50.91119652
         -5.55000000         83.14207661
         -5.54000000         32.52212030
         -5.53000000          0.00000000
         -5.52000000          0.00000000
         -5.51000000          0.00000000
         -5.50000000         17.46410157
         -5.49000000         23.93197932
         -5.48000000         21.06231414
         -5.47000000         17.36048023
         -5.46000000         13.65864633
         -5.45000000         49.55199900
         -5.44000000         19.95614268
         -5.43000000         16.68535509
         -5.42000000         13.02401452
         -5.41000000         10.45299902
         -5.40000000          9.02793481
         -5.39000000          7.60287060
         -5.38000000          0.00000000
         -5.37000000          0.00000000
         -5.36000000          0.00000000
         -5.35000000          0.00000000
         -5.34000000          0.00000000
         -5.33000000          0.00000000
         -5.32000000          0.00000000
         -5.31000000          0.00000000
         -5.30000000          0.00000000
         -5.29000000         91.44674197
         -5.28000000         86.49432225
         -5.27000000          0.00000000
         -5.26000000          0.00000000
         -5.25000000          0.00000000
         -5.24000000          0.00000000
         -5.23000000          0.00000000
         -5.22000000          0.00000000
         -5.21000000          0.00000000
         -5.20000000          0.00000000
         -5.19000000          0.00000000
         -5.18000000          0.00000000
         -5.17000000          0.00000000
         -5.16000000          0.00000000
         -5.15000000          0.00000000
         -5.14000000          0.00000000
         -5.13000000          0.00000000
         -5.12000000          0.00000000
         -5.11000000          0.00000000
         -5.10000000          0.00000000
         -5.09000000          0.00000000
         -5.08000000          0.00000000
         -5.07000000          0.00000000
         -5.06000000          0.00000000
         -5.05000000         51.87507069
         -5.04000000         76.63217264
         -5.03000000        103.81067025
         -5.02000000          0.00000000
         -5.01000000          0.00000000
         -5.00000000          0.00000000
         -4.99000000          0.00000000
         -4.98000000          0.00000000
         -4.97000000          0.00000000
         -4.96000000          0.00000000
         -4.95000000          0.00000000
         -4.94000000          0.00000000
         -4.93000000          0.00000000
         -4.92000000          0.00000000
         -4.91000000          0.00000000
         -4.90000000          0.00000000
         -4.89000000          0.00000000
         -4.88000000          0.00000000
         -4.87000000          0.00000000
         -4.86000000          0.00000000
         -4.85000000          0.00000000
         -4.84000000          0.00000000
         -4.83000000         65.03611673
         -4.82000000        141.79437783
         -4.81000000          0.00000000
         -4.80000000          0.00000000
         -4.79000000         73.56110117
         -4.78000000         37.47605416
         -4.77000000          0.00000000
         -4.76000000          0.00000000
         -4.75000000          0.00000000
         -4.74000000          0.00000000
         -4.73000000          0.00000000
         -4.72000000          0.00000000
         -4.71000000          0.00000000
         -4.70000000          0.00000000
         -4.69000000          0.00000000
         -4.68000000          0.00000000
         -4.67000000          0.00000000
         -4.66000000          0.00000000
         -4.65000000          0.00000000
         -4.64000000          0.00000000
         -4.63000000          0.00000000
         -4.62000000          0.00000000
         -4.61000000          0.00000000
         -4.60000000          0.00000000
         -4.59000000          0.00000000
         -4.58000000          0.00000000
         -4.57000000          0.00000000
         -4.56000000          0.00000000
         -4.55000000          0.00000000
         -4.54000000          0.00000000
         -4.53000000          0.00000000
         -4.52000000          0.00000000
         -4.51000000          0.00000000
         -4.50000000          0.00000000
         -4.49000000          0.00000000
         -4.48000000          0.00000000
         -4.47000000          0.00000000
         -4.46000000          0.00000000
         -4.45000000          0.00000000
         -4.44000000          0.00000000
         -4.43000000          0.00000000
         -4.42000000          0.00000000
         -4.41000000          0.00000000
         -4.40000000          0.00000000
         -4.39000000          0.00000000
         -4.38000000          0.00000000
         -4.37000000          0.00000000
         -4.36000000          0.00000000
         -4.35000000          0.00000000
         -4.34000000          0.00000000
         -4.33000000          0.00000000
         -4.32000000          0.00000000
         -4.31000000          0.00000000
         -4.30000000          0.00000000
         -4.29000000         67.95711329
         -4.28000000         87.72172949
         -4.27000000         66.29784236
         -4.26000000          0.00000000
         -4.25000000          0.00000000
         -4.24000000          0.00000000
         -4.23000000          0.00000000
         -4.22000000          0.00000000
         -4.21000000          0.00000000
         -4.20000000         12.50849682
         -4.19000000        134.23346820
         -4.18000000          0.00000000
         -4.17000000          0.00000000
         -4.16000000          0.00000000
         -4.15000000          0.00000000
         -4.14000000          0.00000000
         -4.13000000          0.00000000
         -4.12000000          0.00000000
         -4.11000000          0.00000000
         -4.10000000          0.00000000
         -4.09000000          0.00000000
         -4.08000000          0.00000000
         -4.07000000          0.00000000
         -4.06000000          0.00000000
         -4.05000000          0.00000000
         -4.04000000          0.00000000
         -4.03000000          0.00000000
         -4.02000000          0.00000000
         -4.01000000          0.00000000
         -4.00000000          0.00000000
         -3.99000000          0.00000000
         -3.98000000          0.00000000
         -3.97000000          0.00000000
         -3.96000000          0.00000000
         -3.95000000          0.00000000
         -3.94000000          0.00000000
         -3.93000000          0.00000000
         -3.92000000          0.00000000
         -3.91000000          0.00000000
         -3.90000000          0.00000000
         -3.89000000          0.00000000
         -3.88000000          0.00000000
         -3.87000000          0.00000000
         -3.86000000          0.00000000
         -3.85000000          0.00000000
         -3.84000000          0.00000000
         -3.83000000          0.00000000
         -3.82000000          0.00000000
         -3.81000000          0.00000000
         -3.80000000          0.00000000
         -3.79000000          0.00000000
         -3.78000000        130.83037946
         -3.77000000         55.13916111
         -3.76000000         40.08231314
         -3.75000000          3.28272875
         -3.74000000         29.22365913
         -3.73000000         48.04576163
         -3.72000000         46.93925316
         -3.71000000         34.10065052
         -3.70000000         53.12304446
         -3.69000000         76.02930725
         -3.68000000         85.37674232
         -3.67000000        124.57022955
         -3.66000000         87.97742571
         -3.65000000         52.04086796
         -3.64000000         61.51874859
         -3.63000000         88.80662506
         -3.62000000         98.93373543
         -3.61000000        113.08152991
         -3.60000000        131.01443240
         -3.59000000         67.89406125
         -3.58000000        155.03169807
         -3.57000000        104.77278540
         -3.56000000        332.68428121
         -3.55000000         43.43266140
         -3.54000000        150.39018613
         -3.53000000        191.17527383
         -3.52000000         45.12966395
         -3.51000000        140.49449253
         -3.50000000         78.02556622
         -3.49000000        171.30601392
         -3.48000000        152.11036092
         -3.47000000         99.76118614
         -3.46000000         74.96609978
         -3.45000000         97.03891856
         -3.44000000         77.40556804
         -3.43000000         63.91315302
         -3.42000000         34.88490369
         -3.41000000        108.13777334
         -3.40000000         59.55628883
         -3.39000000         78.08984283
         -3.38000000         86.98750516
         -3.37000000         71.40577993
         -3.36000000        108.08109991
         -3.35000000         33.91012479
         -3.34000000         60.96313992
         -3.33000000        101.30309915
         -3.32000000         48.26018395
         -3.31000000        114.77560666
         -3.30000000         57.60204979
         -3.29000000        107.13310341
         -3.28000000         44.50812503
         -3.27000000         91.09635758
         -3.26000000         50.63410701
         -3.25000000         51.66853067
         -3.24000000         90.55476883
         -3.23000000         83.82738387
         -3.22000000        116.53083365
         -3.21000000        101.76232038
         -3.20000000         82.66505239
         -3.19000000         93.36548402
         -3.18000000         69.30263902
         -3.17000000         94.19114669
         -3.16000000        112.47851121
         -3.15000000         54.44352569
         -3.14000000        160.41070412
         -3.13000000        118.21610859
         -3.12000000         84.78620865
         -3.11000000        156.87553458
         -3.10000000        130.91561562
         -3.09000000        226.14740725
         -3.08000000        140.82503701
         -3.07000000        156.73052967
         -3.06000000        144.12081099
         -3.05000000        150.23936613
         -3.04000000         81.80287253
         -3.03000000         91.39918935
         -3.02000000         87.33731097
         -3.01000000        276.62170887
         -3.00000000        130.39616116
         -2.99000000        183.93533373
         -2.98000000         96.96790687
         -2.97000000         88.08751650
         -2.96000000        113.21282359
         -2.95000000        168.54334955
         -2.94000000        109.74481312
         -2.93000000        117.76487211
         -2.92000000         48.96167326
         -2.91000000         74.83355173
         -2.90000000         48.83052067
         -2.89000000         79.03100089
         -2.88000000         56.46831355
         -2.87000000         81.13108440
         -2.86000000         53.71996702
         -2.85000000         77.50108407
         -2.84000000         66.49618066
         -2.83000000         77.57133308
         -2.82000000         98.11612742
         -2.81000000        148.24313543
         -2.80000000        121.68950874
         -2.79000000        123.54781995
         -2.78000000         77.88611524
         -2.77000000        101.26397795
         -2.76000000         76.58630231
         -2.75000000        115.81317134
         -2.74000000        179.26162894
         -2.73000000         80.50631991
         -2.72000000        113.69568638
         -2.71000000         83.74925313
         -2.70000000         67.63658884
         -2.69000000        103.20884152
         -2.68000000         81.51887328
         -2.67000000         59.52262347
         -2.66000000         45.30612360
         -2.65000000         72.86605830
         -2.64000000         74.50037357
         -2.63000000         70.37619504
         -2.62000000         66.85219321
         -2.61000000         67.42803745
         -2.60000000         55.12148879
         -2.59000000         76.59293227
         -2.58000000         93.44059554
         -2.57000000         35.11728236
         -2.56000000         58.01182430
         -2.55000000         90.71986478
         -2.54000000         23.74311864
         -2.53000000          7.72675326
         -2.52000000         20.85486368
         -2.51000000        102.62908294
         -2.50000000        102.76476788
         -2.49000000         26.00636680
         -2.48000000        163.61284733
         -2.47000000         31.68216698
         -2.46000000         32.48378798
         -2.45000000        109.05069131
         -2.44000000         66.81244458
         -2.43000000         55.72846379
         -2.42000000         90.02168940
         -2.41000000         88.93700436
         -2.40000000         53.42520878
         -2.39000000         36.58477479
         -2.38000000         25.88554562
         -2.37000000         31.24566517
         -2.36000000         40.40995864
         -2.35000000         40.24293048
         -2.34000000         39.22619105
         -2.33000000         30.03699425
         -2.32000000         28.55163840
         -2.31000000         36.56679691
         -2.30000000         57.26791214
         -2.29000000         40.78076855
         -2.28000000         28.52114596
         -2.27000000         17.50895207
         -2.26000000         16.32872572
         -2.25000000         24.97657740
         -2.24000000         58.62536977
         -2.23000000         87.99145516
         -2.22000000         45.85545018
         -2.21000000         33.30945336
         -2.20000000         70.97742798
         -2.19000000         37.77054669
         -2.18000000         43.69296733
         -2.17000000         61.69386141
         -2.16000000         50.94424878
         -2.15000000         40.19872583
         -2.14000000         40.71535990
         -2.13000000         35.98973394
         -2.12000000         39.87160186
         -2.11000000         45.41938545
         -2.10000000         26.35235854
         -2.09000000         28.74002783
         -2.08000000         34.85883450
         -2.07000000         41.22529983
         -2.06000000         46.68913639
         -2.05000000         54.31274010
         -2.04000000         46.28657832
         -2.03000000         39.81747146
         -2.02000000         27.64219763
         -2.01000000         16.56429501
         -2.00000000         19.63632831
         -1.99000000         69.72768478
         -1.98000000         64.77414810
         -1.97000000         31.36604879
         -1.96000000          4.10464862
         -1.95000000          0.00000000
         -1.94000000         58.12247660
         -1.93000000         45.48127808
         -1.92000000         33.21891486
         -1.91000000         47.09584464
         -1.90000000          8.58209311
         -1.89000000         13.31449069
         -1.88000000         55.84791375
         -1.87000000         30.41408899
         -1.86000000         31.43874294
         -1.85000000         42.22797325
         -1.84000000         40.29256130
         -1.83000000         33.67772227
         -1.82000000         28.42295253
         -1.81000000         39.03674958
         -1.80000000         39.45594864
         -1.79000000         39.07598793
         -1.78000000         31.18888801
         -1.77000000         42.88303915
         -1.76000000         33.27351805
         -1.75000000         32.19509590
         -1.74000000         44.53335854
         -1.73000000         60.47146996
         -1.72000000         51.96190494
         -1.71000000         42.85124987
         -1.70000000         87.20074901
         -1.69000000         23.76361201
         -1.68000000         24.30864291
         -1.67000000         35.24800210
         -1.66000000         37.53361112
         -1.65000000         35.24487173
         -1.64000000         38.38996442
         -1.63000000         58.71656329
         -1.62000000         30.11098528
         -1.61000000         40.84694778
         -1.60000000         60.82134702
         -1.59000000         35.67622288
         -1.58000000         33.11002008
         -1.57000000         74.09690157
         -1.56000000         29.57225911
         -1.55000000         17.30385336
         -1.54000000         60.17900419
         -1.53000000         74.89484013
         -1.52000000         50.51731124
         -1.51000000         72.15290790
         -1.50000000        128.88099130
         -1.49000000         71.70561175
         -1.48000000        104.90172197
         -1.47000000         81.25075309
         -1.46000000         84.06005734
         -1.45000000        118.96756478
         -1.44000000        116.87823955
         -1.43000000        118.46580914
         -1.42000000        109.86403281
         -1.41000000        104.88116058
         -1.40000000        101.29061628
         -1.39000000         77.34611494
         -1.38000000         74.90218884
         -1.37000000         88.03094588
         -1.36000000         91.87263365
         -1.35000000         51.17051222
         -1.34000000         63.19775455
         -1.33000000         68.99689586
         -1.32000000         77.59762559
         -1.31000000         77.82663902
         -1.30000000         49.22782101
         -1.29000000         23.49425627
         -1.28000000         16.72388337
         -1.27000000          7.49370878
         -1.26000000         59.12085806
         -1.25000000         88.38214440
         -1.24000000         38.38249270
         -1.23000000         30.61162059
         -1.22000000         28.96473883
         -1.21000000         46.47889993
         -1.20000000         48.49892089
         -1.19000000         26.28713943
         -1.18000000         16.53467767
         -1.17000000          8.59393993
         -1.16000000         11.33320221
         -1.15000000         50.69255887
         -1.14000000         23.75562854
         -1.13000000         36.52064154
         -1.12000000         34.24177166
         -1.11000000         30.41851828
         -1.10000000         29.53555091
         -1.09000000         54.56535374
         -1.08000000          3.95057690
         -1.07000000          4.49932476
         -1.06000000          5.04807263
         -1.05000000          5.59682049
         -1.04000000          6.69223881
         -1.03000000         18.39557618
         -1.02000000         20.80451588
         -1.01000000         50.15581097
         -1.00000000         28.78039251
         -0.99000000         17.06265643
         -0.98000000         11.79651338
         -0.97000000         12.42113749
         -0.96000000         13.04576160
         -0.95000000          0.00000000
         -0.94000000          0.00000000
         -0.93000000          0.00000000
         -0.92000000          0.00000000
         -0.91000000          0.00000000
         -0.90000000          0.00000000
         -0.89000000          0.00000000
         -0.88000000          0.00000000
         -0.87000000          0.00000000
         -0.86000000          0.00000000
         -0.85000000          0.00000000
         -0.84000000          0.00000000
         -0.83000000          0.00000000
         -0.82000000          0.00000000
         -0.81000000          0.00000000
         -0.80000000          0.00000000
         -0.79000000          0.00000000
         -0.78000000          0.00000000
         -0.77000000          0.00000000
         -0.76000000          0.00000000
         -0.75000000          0.00000000
         -0.74000000          0.00000000
         -0.73000000          0.00000000
         -0.72000000          0.00000000
         -0.71000000          0.00000000
         -0.70000000          0.00000000
         -0.69000000          0.00000000
         -0.68000000          0.00000000
         -0.67000000          0.00000000
         -0.66000000          0.00000000
         -0.65000000          0.00000000
         -0.64000000          0.00000000
         -0.63000000          0.00000000
         -0.62000000          0.00000000
         -0.61000000          0.00000000
         -0.60000000          0.00000000
         -0.59000000          0.00000000
         -0.58000000          0.00000000
         -0.57000000          0.00000000
         -0.56000000          0.00000000
         -0.55000000          0.00000000
         -0.54000000          0.00000000
         -0.53000000          0.00000000
         -0.52000000          0.00000000
         -0.51000000          0.00000000
         -0.50000000          0.00000000
         -0.49000000          0.00000000
         -0.48000000          0.00000000
         -0.47000000          0.00000000
         -0.46000000          0.00000000
         -0.45000000          0.00000000
         -0.44000000          0.00000000
         -0.43000000          0.00000000
         -0.42000000          0.00000000
         -0.41000000          0.00000000
         -0.40000000          0.00000000
         -0.39000000          0.00000000
         -0.38000000          0.00000000
         -0.37000000          0.00000000
         -0.36000000          0.00000000
         -0.35000000          0.00000000
         -0.34000000          0.00000000
         -0.33000000          0.00000000
         -0.32000000          0.00000000
         -0.31000000          0.00000000
         -0.30000000          0.00000000
         -0.29000000          0.00000000
         -0.28000000          0.00000000
         -0.27000000          0.00000000
         -0.26000000          0.00000000
         -0.25000000          0.00000000
         -0.24000000          0.00000000
         -0.23000000          0.00000000
         -0.22000000          0.00000000
         -0.21000000          0.00000000
         -0.20000000          0.00000000
         -0.19000000          0.00000000
         -0.18000000          0.00000000
         -0.17000000          0.00000000
         -0.16000000          0.00000000
         -0.15000000          0.00000000
         -0.14000000          0.00000000
         -0.13000000          0.00000000
         -0.12000000          0.00000000
         -0.11000000          0.00000000
         -0.10000000          0.00000000
         -0.09000000          0.00000000
         -0.08000000          0.00000000
         -0.07000000          0.00000000
         -0.06000000          0.00000000
         -0.05000000          0.00000000
         -0.04000000          0.00000000
         -0.03000000          0.00000000
         -0.02000000          0.00000000
         -0.01000000          0.00000000
          0.00000000          0.00000000
