# total density of states output by FHI-aims 
# The energy reference for this output is the vacuum level
#    Energy (eV)      DOS 
        -10.00000000         29.97522814
         -9.99000000         28.79418117
         -9.98000000         27.61313421
         -9.97000000         26.22256897
         -9.96000000         25.70352707
         -9.95000000         52.41830953
         -9.94000000         35.00964726
         -9.93000000         31.27564347
         -9.92000000         29.30444756
         -9.91000000         30.66660053
         -9.90000000         32.02875351
         -9.89000000         33.72373153
         -9.88000000         20.41467920
         -9.87000000         43.16771891
         -9.86000000         75.59059980
         -9.85000000         46.44768961
         -9.84000000         30.93675027
         -9.83000000         14.35999353
         -9.82000000         14.90662330
         -9.81000000         17.14959832
         -9.80000000         19.85262349
         -9.79000000         22.55564866
         -9.78000000         25.60732871
         -9.77000000         29.51258268
         -9.76000000         34.60401596
         -9.75000000         31.69611701
         -9.74000000         36.45442043
         -9.73000000         45.67466416
         -9.72000000         38.67802075
         -9.71000000         45.07728504
         -9.70000000         55.89867304
         -9.69000000         71.65247807
         -9.68000000         96.38077327
         -9.67000000         76.31162627
         -9.66000000         43.49999463
         -9.65000000         82.22567586
         -9.64000000         15.53230288
         -9.63000000         39.29114927
         -9.62000000        124.68464654
         -9.61000000         16.59628794
         -9.60000000         34.95081577
         -9.59000000         57.03637111
         -9.58000000        142.78800247
         -9.57000000         39.77842335
         -9.56000000         74.94708623
         -9.55000000         95.47371397
         -9.54000000        149.41755157
         -9.53000000        127.28356090
         -9.52000000        182.01558684
         -9.51000000         39.96830375
         -9.50000000         94.00396042
         -9.49000000         77.50841070
         -9.48000000         72.27153515
         -9.47000000         54.56122952
         -9.46000000         57.01269414
         -9.45000000         57.37274072
         -9.44000000         48.42508358
         -9.43000000        105.04507070
         -9.42000000         65.13849764
         -9.41000000         63.52548100
         -9.40000000         89.98156365
         -9.39000000         79.56135659
         -9.38000000         70.93675020
         -9.37000000        105.45693664
         -9.36000000         93.78402249
         -9.35000000         86.46616213
         -9.34000000         66.99613926
         -9.33000000         76.01628983
         -9.32000000         49.98977764
         -9.31000000         34.49982098
         -9.30000000         24.70718833
         -9.29000000         27.82218452
         -9.28000000         29.78193407
         -9.27000000        176.75392282
         -9.26000000         72.66893904
         -9.25000000         43.06910936
         -9.24000000         23.80533122
         -9.23000000         25.70502778
         -9.22000000         94.81846951
         -9.21000000         86.85988584
         -9.20000000         14.88573638
         -9.19000000         66.34114904
         -9.18000000        140.44553806
         -9.17000000         55.30712817
         -9.16000000         65.30497086
         -9.15000000         25.32988948
         -9.14000000          3.64454773
         -9.13000000         42.22423769
         -9.12000000         53.33222681
         -9.11000000         69.74235067
         -9.10000000         64.25195609
         -9.09000000         64.17504963
         -9.08000000         50.85972803
         -9.07000000         38.24122631
         -9.06000000         42.06593873
         -9.05000000         32.92730130
         -9.04000000         26.64946906
         -9.03000000         21.57448880
         -9.02000000         16.49950854
         -9.01000000         25.88989061
         -9.00000000        109.65137043
         -8.99000000         84.35692713
         -8.98000000         65.46814714
         -8.97000000         55.03051930
         -8.96000000         93.14147678
         -8.95000000         50.98003208
         -8.94000000         65.39858665
         -8.93000000         61.85072302
         -8.92000000         50.97165148
         -8.91000000         12.77524590
         -8.90000000         14.99662909
         -8.89000000         17.31886048
         -8.88000000         19.64109187
         -8.87000000         21.96332326
         -8.86000000         33.75461479
         -8.85000000         37.95827044
         -8.84000000          2.71270311
         -8.83000000          5.60670311
         -8.82000000         10.43403556
         -8.81000000         16.57444534
         -8.80000000         22.71485513
         -8.79000000         28.85526492
         -8.78000000         36.02930331
         -8.77000000        154.04664604
         -8.76000000         36.60699890
         -8.75000000         41.44374865
         -8.74000000         35.93610298
         -8.73000000         38.94499859
         -8.72000000         35.19054931
         -8.71000000         30.29507723
         -8.70000000         35.83474164
         -8.69000000         41.37440605
         -8.68000000         44.10926558
         -8.67000000         53.62867783
         -8.66000000         30.10765027
         -8.65000000         33.76364456
         -8.64000000         39.58181243
         -8.63000000         45.78661559
         -8.62000000         47.61270250
         -8.61000000         36.60011290
         -8.60000000         31.72846548
         -8.59000000         20.03006979
         -8.58000000         13.97292209
         -8.57000000         14.80284035
         -8.56000000         15.63275862
         -8.55000000         16.51522687
         -8.54000000         18.52311448
         -8.53000000         20.53100209
         -8.52000000         22.94369577
         -8.51000000         26.67997029
         -8.50000000         35.96326195
         -8.49000000         98.51130608
         -8.48000000         34.54122105
         -8.47000000         32.34136091
         -8.46000000         27.46427312
         -8.45000000         24.02166537
         -8.44000000         34.90688069
         -8.43000000         47.63408560
         -8.42000000         33.97874633
         -8.41000000         24.84658871
         -8.40000000         35.18385457
         -8.39000000         62.49014893
         -8.38000000         94.15796962
         -8.37000000         88.12161872
         -8.36000000         66.70555319
         -8.35000000         24.34796624
         -8.34000000         59.68163194
         -8.33000000         99.06474042
         -8.32000000         57.83823030
         -8.31000000         59.49656791
         -8.30000000          0.00000000
         -8.29000000         37.06894546
         -8.28000000         57.88848231
         -8.27000000         60.96941883
         -8.26000000         88.74447877
         -8.25000000         48.72225674
         -8.24000000         37.39045546
         -8.23000000         84.97976979
         -8.22000000        226.67922608
         -8.21000000        117.72108395
         -8.20000000        161.21235453
         -8.19000000         87.42668102
         -8.18000000         86.88172667
         -8.17000000         60.78836935
         -8.16000000         94.93011027
         -8.15000000         71.54760674
         -8.14000000        113.88966912
         -8.13000000         82.48391141
         -8.12000000         74.28596134
         -8.11000000         82.04204468
         -8.10000000         52.75460925
         -8.09000000        102.00629768
         -8.08000000        103.12868058
         -8.07000000         58.18994107
         -8.06000000         67.24974079
         -8.05000000         63.83108559
         -8.04000000         66.48807885
         -8.03000000         63.07264184
         -8.02000000         61.67216174
         -8.01000000         59.86872705
         -8.00000000         72.44524964
         -7.99000000         80.47707662
         -7.98000000         67.84427766
         -7.97000000         63.50625648
         -7.96000000         57.75922203
         -7.95000000         52.38040290
         -7.94000000         51.82816316
         -7.93000000         57.25557759
         -7.92000000         40.47591628
         -7.91000000         53.96084628
         -7.90000000         52.30597390
         -7.89000000         60.36149392
         -7.88000000         83.86534892
         -7.87000000         56.96511197
         -7.86000000         92.57449811
         -7.85000000         70.07929087
         -7.84000000         78.29058630
         -7.83000000         97.06950762
         -7.82000000         75.40662174
         -7.81000000         62.15263941
         -7.80000000        114.59756031
         -7.79000000         76.54219430
         -7.78000000        125.18960436
         -7.77000000         61.77088195
         -7.76000000         53.38174277
         -7.75000000         62.48152994
         -7.74000000         37.01609333
         -7.73000000         53.90453358
         -7.72000000         44.35421470
         -7.71000000         48.08727378
         -7.70000000         53.38497061
         -7.69000000         59.22519111
         -7.68000000         74.24682053
         -7.67000000         54.33831880
         -7.66000000         63.04739813
         -7.65000000         40.85504063
         -7.64000000         28.82711629
         -7.63000000         33.13846351
         -7.62000000         40.71482340
         -7.61000000         64.69626864
         -7.60000000         52.86545649
         -7.59000000         70.79613820
         -7.58000000         46.30138301
         -7.57000000         64.20697994
         -7.56000000         43.54780413
         -7.55000000         44.67981743
         -7.54000000         47.67985823
         -7.53000000         54.43927867
         -7.52000000         62.92439487
         -7.51000000         51.33716796
         -7.50000000         54.48760303
         -7.49000000         56.70099949
         -7.48000000         60.76687135
         -7.47000000         67.73074912
         -7.46000000         57.96098465
         -7.45000000         63.05078682
         -7.44000000         50.83356349
         -7.43000000         51.28979112
         -7.42000000         51.28189071
         -7.41000000         49.05728338
         -7.40000000         35.73779664
         -7.39000000         40.99244269
         -7.38000000         76.88606299
         -7.37000000         26.41911576
         -7.36000000         58.62500841
         -7.35000000         34.05964962
         -7.34000000         34.54767453
         -7.33000000         47.76135604
         -7.32000000         59.52618992
         -7.31000000         75.40829488
         -7.30000000         57.46837335
         -7.29000000         68.92660598
         -7.28000000         54.34098249
         -7.27000000         76.28343601
         -7.26000000         62.85893282
         -7.25000000         19.79453106
         -7.24000000         95.22431664
         -7.23000000          6.13068509
         -7.22000000        272.65196244
         -7.21000000         68.46687227
         -7.20000000         33.11145767
         -7.19000000         28.86939837
         -7.18000000         31.67298823
         -7.17000000         49.48655202
         -7.16000000         79.74697825
         -7.15000000         94.73510495
         -7.14000000         70.41950762
         -7.13000000         65.02354752
         -7.12000000         41.77091713
         -7.11000000         36.71760545
         -7.10000000         42.14951170
         -7.09000000         52.07139546
         -7.08000000         61.99327921
         -7.07000000         67.26142778
         -7.06000000         44.17151556
         -7.05000000         50.51435770
         -7.04000000         59.94468084
         -7.03000000         49.89584720
         -7.02000000        108.19317996
         -7.01000000         64.71723563
         -7.00000000         44.93378987
         -6.99000000         34.82767988
         -6.98000000         80.14714977
         -6.97000000         20.28276257
         -6.96000000         18.90811823
         -6.95000000         19.31347227
         -6.94000000         33.81453050
         -6.93000000         55.24022381
         -6.92000000         60.21343378
         -6.91000000         42.21070413
         -6.90000000         41.22978719
         -6.89000000         44.23974023
         -6.88000000         39.08586870
         -6.87000000         38.21381878
         -6.86000000         99.93943878
         -6.85000000         68.81493453
         -6.84000000         41.27491841
         -6.83000000         55.59816063
         -6.82000000         54.20655692
         -6.81000000         49.88132861
         -6.80000000         42.48171392
         -6.79000000         72.05011700
         -6.78000000         59.34337409
         -6.77000000         68.91112670
         -6.76000000         59.54441810
         -6.75000000         46.68445576
         -6.74000000         47.37760905
         -6.73000000        103.22373015
         -6.72000000         39.32690941
         -6.71000000         76.44527603
         -6.70000000         50.77171133
         -6.69000000         59.84382737
         -6.68000000         72.41721897
         -6.67000000         53.30769945
         -6.66000000         55.44110122
         -6.65000000         76.14433836
         -6.64000000         53.41424674
         -6.63000000         72.51955371
         -6.62000000         86.11974132
         -6.61000000         42.86750169
         -6.60000000         52.51413114
         -6.59000000         56.08036202
         -6.58000000         60.92933988
         -6.57000000         67.73003621
         -6.56000000         73.17530230
         -6.55000000         79.04864505
         -6.54000000         66.83785782
         -6.53000000         70.42990281
         -6.52000000        176.31151563
         -6.51000000         59.30516697
         -6.50000000         46.24812814
         -6.49000000         78.76388212
         -6.48000000         59.24541384
         -6.47000000         45.34589991
         -6.46000000         43.39937682
         -6.45000000         45.68930810
         -6.44000000         65.60496618
         -6.43000000         52.68703536
         -6.42000000         38.93584085
         -6.41000000         51.80422305
         -6.40000000         33.19255462
         -6.39000000        122.84846065
         -6.38000000         49.29829785
         -6.37000000          0.00000000
         -6.36000000        149.27157596
         -6.35000000         54.63713264
         -6.34000000          0.00000000
         -6.33000000         23.23829949
         -6.32000000        131.04805278
         -6.31000000         54.29970974
         -6.30000000         48.63843318
         -6.29000000         30.24356294
         -6.28000000         70.80922943
         -6.27000000         18.38007306
         -6.26000000         26.63715793
         -6.25000000         37.30781339
         -6.24000000         47.97846886
         -6.23000000         28.17430708
         -6.22000000         26.85907236
         -6.21000000         32.01888982
         -6.20000000         25.38612456
         -6.19000000         18.75335930
         -6.18000000         12.71891255
         -6.17000000         36.85389611
         -6.16000000         18.35690572
         -6.15000000         19.65783683
         -6.14000000         20.95876794
         -6.13000000         22.25969905
         -6.12000000         23.56063016
         -6.11000000         24.86156127
         -6.10000000         26.16249238
         -6.09000000         45.65002718
         -6.08000000          2.33973910
         -6.07000000          0.00000000
         -6.06000000         27.46159741
         -6.05000000         45.74812175
         -6.04000000         38.88825745
         -6.03000000         32.02839316
         -6.02000000         25.16852887
         -6.01000000         18.30866457
         -6.00000000          0.00000000
         -5.99000000          0.00000000
         -5.98000000          0.00000000
         -5.97000000          0.00000000
         -5.96000000          0.00000000
         -5.95000000          0.00000000
         -5.94000000          0.00000000
         -5.93000000          0.00000000
         -5.92000000          0.00000000
         -5.91000000          0.00000000
         -5.90000000          0.00000000
         -5.89000000          0.00000000
         -5.88000000          0.00000000
         -5.87000000          0.00000000
         -5.86000000          0.00000000
         -5.85000000          0.00000000
         -5.84000000          0.00000000
         -5.83000000          0.00000000
         -5.82000000          0.00000000
         -5.81000000          0.00000000
         -5.80000000          0.00000000
         -5.79000000          0.00000000
         -5.78000000          0.00000000
         -5.77000000          0.00000000
         -5.76000000          0.00000000
         -5.75000000          0.00000000
         -5.74000000          0.00000000
         -5.73000000          0.00000000
         -5.72000000          0.00000000
         -5.71000000          0.00000000
         -5.70000000          0.00000000
         -5.69000000          0.00000000
         -5.68000000          0.00000000
         -5.67000000          0.00000000
         -5.66000000          0.00000000
         -5.65000000          0.00000000
         -5.64000000          0.00000000
         -5.63000000          0.00000000
         -5.62000000          0.00000000
         -5.61000000          0.00000000
         -5.60000000          0.00000000
         -5.59000000          0.00000000
         -5.58000000          0.00000000
         -5.57000000          0.00000000
         -5.56000000          0.00000000
         -5.55000000         12.73588307
         -5.54000000         74.70723533
         -5.53000000        160.31129073
         -5.52000000         66.74941939
         -5.51000000        123.54090367
         -5.50000000          0.00000000
         -5.49000000          0.00000000
         -5.48000000          0.00000000
         -5.47000000          0.00000000
         -5.46000000          0.00000000
         -5.45000000          0.00000000
         -5.44000000          0.00000000
         -5.43000000          0.00000000
         -5.42000000          0.00000000
         -5.41000000          0.00000000
         -5.40000000          0.00000000
         -5.39000000          0.00000000
         -5.38000000          0.00000000
         -5.37000000          0.00000000
         -5.36000000          0.00000000
         -5.35000000          0.00000000
         -5.34000000          0.00000000
         -5.33000000          0.00000000
         -5.32000000          0.00000000
         -5.31000000          0.00000000
         -5.30000000          0.00000000
         -5.29000000          0.00000000
         -5.28000000          0.00000000
         -5.27000000          0.00000000
         -5.26000000          0.00000000
         -5.25000000          0.00000000
         -5.24000000          0.00000000
         -5.23000000          0.00000000
         -5.22000000          0.00000000
         -5.21000000          0.00000000
         -5.20000000          0.00000000
         -5.19000000          0.00000000
         -5.18000000          0.00000000
         -5.17000000          0.00000000
         -5.16000000          0.00000000
         -5.15000000          0.00000000
         -5.14000000          0.00000000
         -5.13000000          0.00000000
         -5.12000000          0.00000000
         -5.11000000          0.00000000
         -5.10000000          0.00000000
         -5.09000000          0.00000000
         -5.08000000          0.00000000
         -5.07000000          0.00000000
         -5.06000000          0.00000000
         -5.05000000          0.00000000
         -5.04000000          0.00000000
         -5.03000000          0.00000000
         -5.02000000          0.00000000
         -5.01000000          0.00000000
         -5.00000000         59.75887755
         -4.99000000         70.12468698
         -4.98000000         64.89509684
         -4.97000000          0.00000000
         -4.96000000         61.59336739
         -4.95000000         71.04042986
         -4.94000000         67.97947647
         -4.93000000          0.00000000
         -4.92000000          0.00000000
         -4.91000000          0.00000000
         -4.90000000          0.00000000
         -4.89000000          0.00000000
         -4.88000000          0.00000000
         -4.87000000          0.00000000
         -4.86000000          0.00000000
         -4.85000000          0.00000000
         -4.84000000          0.00000000
         -4.83000000          0.00000000
         -4.82000000        104.10901081
         -4.81000000         80.34606591
         -4.80000000         32.83654162
         -4.79000000          0.00000000
         -4.78000000          0.00000000
         -4.77000000          0.00000000
         -4.76000000          0.00000000
         -4.75000000          0.00000000
         -4.74000000          0.00000000
         -4.73000000          0.00000000
         -4.72000000          0.00000000
         -4.71000000          0.00000000
         -4.70000000          0.00000000
         -4.69000000          0.00000000
         -4.68000000          0.00000000
         -4.67000000          0.00000000
         -4.66000000          0.00000000
         -4.65000000          0.00000000
         -4.64000000          0.00000000
         -4.63000000          0.00000000
         -4.62000000          0.00000000
         -4.61000000          0.00000000
         -4.60000000          0.00000000
         -4.59000000          0.00000000
         -4.58000000          0.00000000
         -4.57000000          0.00000000
         -4.56000000          0.00000000
         -4.55000000          0.00000000
         -4.54000000          0.00000000
         -4.53000000          0.00000000
         -4.52000000          0.00000000
         -4.51000000          0.00000000
         -4.50000000          0.00000000
         -4.49000000          0.00000000
         -4.48000000          0.00000000
         -4.47000000          0.00000000
         -4.46000000          0.00000000
         -4.45000000          0.00000000
         -4.44000000          0.00000000
         -4.43000000          0.00000000
         -4.42000000          0.00000000
         -4.41000000          0.00000000
         -4.40000000          0.00000000
         -4.39000000          0.00000000
         -4.38000000          0.00000000
         -4.37000000          0.00000000
         -4.36000000          0.00000000
         -4.35000000          0.00000000
         -4.34000000          0.00000000
         -4.33000000          0.00000000
         -4.32000000          0.00000000
         -4.31000000          0.00000000
         -4.30000000          0.00000000
         -4.29000000          0.00000000
         -4.28000000          0.00000000
         -4.27000000          0.00000000
         -4.26000000          0.00000000
         -4.25000000          0.00000000
         -4.24000000          0.00000000
         -4.23000000          0.00000000
         -4.22000000          0.00000000
         -4.21000000          0.00000000
         -4.20000000          0.00000000
         -4.19000000          0.00000000
         -4.18000000          0.00000000
         -4.17000000          0.00000000
         -4.16000000          0.00000000
         -4.15000000          0.00000000
         -4.14000000          0.00000000
         -4.13000000          0.00000000
         -4.12000000          0.00000000
         -4.11000000          0.00000000
         -4.10000000          0.00000000
         -4.09000000          0.00000000
         -4.08000000          0.00000000
         -4.07000000          0.00000000
         -4.06000000          0.00000000
         -4.05000000          0.00000000
         -4.04000000          0.00000000
         -4.03000000          0.00000000
         -4.02000000          0.00000000
         -4.01000000          0.00000000
         -4.00000000          0.00000000
         -3.99000000          0.00000000
         -3.98000000          0.00000000
         -3.97000000          0.00000000
         -3.96000000          0.00000000
         -3.95000000          0.00000000
         -3.94000000          0.00000000
         -3.93000000          0.00000000
         -3.92000000          0.00000000
         -3.91000000          0.00000000
         -3.90000000          0.00000000
         -3.89000000          0.00000000
         -3.88000000          0.00000000
         -3.87000000          0.00000000
         -3.86000000          0.00000000
         -3.85000000         15.88767691
         -3.84000000         23.70073464
         -3.83000000         31.51379238
         -3.82000000         39.32685011
         -3.81000000         59.97944099
         -3.80000000         23.78618461
         -3.79000000         49.43580255
         -3.78000000         23.65810110
         -3.77000000         37.61659829
         -3.76000000         45.98264609
         -3.75000000         50.08090164
         -3.74000000         63.01820943
         -3.73000000         60.80159380
         -3.72000000        102.27683544
         -3.71000000        108.01712290
         -3.70000000         28.07510665
         -3.69000000         35.56671711
         -3.68000000         44.13581220
         -3.67000000         45.17387684
         -3.66000000         46.72829793
         -3.65000000         48.28271901
         -3.64000000         49.87886234
         -3.63000000         57.03781054
         -3.62000000        108.54480704
         -3.61000000        158.02231648
         -3.60000000         77.32297848
         -3.59000000         26.72097729
         -3.58000000          0.00000000
         -3.57000000        201.72526770
         -3.56000000        193.18993831
         -3.55000000         82.31646385
         -3.54000000         97.15149808
         -3.53000000          0.00000000
         -3.52000000         73.08613454
         -3.51000000         40.72067074
         -3.50000000         31.26540169
         -3.49000000         21.81013263
         -3.48000000         61.09995911
         -3.47000000        118.69200116
         -3.46000000        123.87481699
         -3.45000000         79.87371068
         -3.44000000         62.12471191
         -3.43000000        109.74515259
         -3.42000000         58.72561788
         -3.41000000          9.00001665
         -3.40000000        113.83828340
         -3.39000000         84.34530369
         -3.38000000         47.72639501
         -3.37000000         89.54243244
         -3.36000000         43.00851843
         -3.35000000         44.28258645
         -3.34000000         94.29384827
         -3.33000000         51.82414838
         -3.32000000         64.17064921
         -3.31000000         77.39816108
         -3.30000000         83.08590620
         -3.29000000        150.58781402
         -3.28000000         48.51387763
         -3.27000000         31.36868845
         -3.26000000         19.51156536
         -3.25000000         24.28390955
         -3.24000000         28.86729996
         -3.23000000         35.59342966
         -3.22000000         43.04592167
         -3.21000000         36.70012132
         -3.20000000         48.47375076
         -3.19000000         70.09667926
         -3.18000000         84.82189032
         -3.17000000         65.60392372
         -3.16000000         46.59723259
         -3.15000000         48.97278615
         -3.14000000         52.31758948
         -3.13000000         58.23564889
         -3.12000000         59.02429410
         -3.11000000         59.28779406
         -3.10000000         40.72372789
         -3.09000000         50.95021369
         -3.08000000         92.37081648
         -3.07000000         86.05555099
         -3.06000000         66.70503828
         -3.05000000        100.16528551
         -3.04000000         68.80646199
         -3.03000000        124.96065769
         -3.02000000         99.59040573
         -3.01000000         92.05066725
         -3.00000000        118.55584659
         -2.99000000        121.65402204
         -2.98000000        116.77411362
         -2.97000000         94.12375767
         -2.96000000        104.96316078
         -2.95000000         88.01006790
         -2.94000000        100.45525948
         -2.93000000         82.67988915
         -2.92000000        157.35687566
         -2.91000000        123.62196639
         -2.90000000        113.38053650
         -2.89000000         46.11354218
         -2.88000000         55.69566733
         -2.87000000         89.44434130
         -2.86000000        127.57969911
         -2.85000000        207.55233780
         -2.84000000         61.25156872
         -2.83000000        101.41803991
         -2.82000000         86.23647084
         -2.81000000         99.69146829
         -2.80000000        120.53566803
         -2.79000000        110.30572882
         -2.78000000         70.56547480
         -2.77000000         85.98785506
         -2.76000000        148.74231237
         -2.75000000        129.66735041
         -2.74000000         81.59221304
         -2.73000000         44.78803599
         -2.72000000        101.18553827
         -2.71000000         58.36290363
         -2.70000000         68.35516002
         -2.69000000         62.79801451
         -2.68000000         60.77082534
         -2.67000000         51.70297781
         -2.66000000        163.05052855
         -2.65000000         43.79088329
         -2.64000000         36.82395545
         -2.63000000         43.50734584
         -2.62000000         53.53710105
         -2.61000000         63.56685627
         -2.60000000         81.78791753
         -2.59000000        105.74707553
         -2.58000000        322.47529652
         -2.57000000        110.81049835
         -2.56000000        125.65001975
         -2.55000000        138.93614162
         -2.54000000        122.14943788
         -2.53000000         42.92699201
         -2.52000000        100.45047388
         -2.51000000         79.32523851
         -2.50000000         71.65919797
         -2.49000000         36.08612668
         -2.48000000         47.41004603
         -2.47000000         31.96276767
         -2.46000000         72.93682964
         -2.45000000         66.43059315
         -2.44000000         47.23887575
         -2.43000000         29.91581919
         -2.42000000         57.72501986
         -2.41000000        164.57194587
         -2.40000000         36.72633278
         -2.39000000        103.58056392
         -2.38000000         22.14942435
         -2.37000000         18.51279135
         -2.36000000         27.35347775
         -2.35000000         31.78692369
         -2.34000000         36.22036963
         -2.33000000         73.09149133
         -2.32000000         46.69897048
         -2.31000000         44.56779425
         -2.30000000         50.01991521
         -2.29000000         72.02441537
         -2.28000000         47.43923093
         -2.27000000         24.69847472
         -2.26000000         15.36882769
         -2.25000000         81.24769136
         -2.24000000         63.34082103
         -2.23000000         33.02382559
         -2.22000000          7.58201445
         -2.21000000        117.22251625
         -2.20000000         97.31045764
         -2.19000000         78.25393330
         -2.18000000         64.88604484
         -2.17000000         69.78599222
         -2.16000000         77.51169387
         -2.15000000         41.58418934
         -2.14000000         32.84912672
         -2.13000000         25.60474009
         -2.12000000         19.84007663
         -2.11000000         26.73626056
         -2.10000000         33.63244449
         -2.09000000         40.52862842
         -2.08000000         39.90689691
         -2.07000000         34.57358351
         -2.06000000         34.45074374
         -2.05000000         39.67761202
         -2.04000000         42.35177253
         -2.03000000         42.42509478
         -2.02000000         39.99387687
         -2.01000000         29.17290788
         -2.00000000         19.73810178
         -1.99000000         18.44266000
         -1.98000000         22.48407006
         -1.97000000         70.80586521
         -1.96000000         28.65127539
         -1.95000000         27.26944209
         -1.94000000         43.43349675
         -1.93000000         54.75630504
         -1.92000000         25.80035339
         -1.91000000         26.78437316
         -1.90000000         47.23053816
         -1.89000000         22.53586500
         -1.88000000         26.48494855
         -1.87000000         26.28512030
         -1.86000000         41.99885591
         -1.85000000         35.39607709
         -1.84000000         38.44703480
         -1.83000000         44.07649653
         -1.82000000         49.70595825
         -1.81000000         16.78153816
         -1.80000000          8.94442024
         -1.79000000         39.31896679
         -1.78000000         13.18266741
         -1.77000000         13.50194190
         -1.76000000         13.82121639
         -1.75000000         14.14049087
         -1.74000000         14.45976536
         -1.73000000         14.77903984
         -1.72000000         15.26777004
         -1.71000000         15.95657232
         -1.70000000         30.81593635
         -1.69000000         82.56638935
         -1.68000000         48.70245441
         -1.67000000         45.18344616
         -1.66000000         42.72764423
         -1.65000000         29.11313378
         -1.64000000         15.54484825
         -1.63000000          4.70385116
         -1.62000000          1.36634339
         -1.61000000          0.00000000
         -1.60000000         11.13974913
         -1.59000000         97.56519018
         -1.58000000         68.76772458
         -1.57000000         73.70525660
         -1.56000000         31.29995211
         -1.55000000         22.27535044
         -1.54000000         15.69205975
         -1.53000000         12.83397789
         -1.52000000         11.95127410
         -1.51000000         35.46777429
         -1.50000000         25.63744361
         -1.49000000         19.99811353
         -1.48000000         21.72077159
         -1.47000000         23.53428388
         -1.46000000         24.61083228
         -1.45000000         26.16334872
         -1.44000000         46.00495494
         -1.43000000         23.79841375
         -1.42000000         25.35620133
         -1.41000000         26.91398890
         -1.40000000         33.07370929
         -1.39000000         48.59171580
         -1.38000000         40.49960252
         -1.37000000         52.59057379
         -1.36000000         95.33415142
         -1.35000000         33.54101369
         -1.34000000         34.29480028
         -1.33000000         34.66543882
         -1.32000000         22.85052962
         -1.31000000          4.87404771
         -1.30000000          8.71724595
         -1.29000000          8.91163545
         -1.28000000          9.10602496
         -1.27000000          9.30041446
         -1.26000000          9.49480397
         -1.25000000          9.68919348
         -1.24000000          9.88358298
         -1.23000000         23.07564152
         -1.22000000         52.49048003
         -1.21000000         34.14618117
         -1.20000000         49.43438928
         -1.19000000         58.39967983
         -1.18000000         45.54447433
         -1.17000000         45.63553224
         -1.16000000         84.62446859
         -1.15000000         57.09986719
         -1.14000000         15.13912733
         -1.13000000          3.69500672
         -1.12000000         16.64405889
         -1.11000000         44.43064085
         -1.10000000         28.69916197
         -1.09000000         40.79961003
         -1.08000000         25.94672441
         -1.07000000         34.02691144
         -1.06000000         43.49911354
         -1.05000000         52.97131564
         -1.04000000         71.57889102
         -1.03000000         71.72507367
         -1.02000000        102.07552420
         -1.01000000         57.19710189
         -1.00000000         91.51947569
         -0.99000000        109.32144863
         -0.98000000        116.16473082
         -0.97000000         95.68956819
         -0.96000000        111.95527516
         -0.95000000        109.37467027
         -0.94000000         93.93664827
         -0.93000000        152.94731383
         -0.92000000         80.35791159
         -0.91000000         67.46815242
         -0.90000000         98.87089315
         -0.89000000         65.43936500
         -0.88000000         61.15918704
         -0.87000000         59.14891617
         -0.86000000         58.61220675
         -0.85000000         57.10888730
         -0.84000000         36.69751980
         -0.83000000         45.74882407
         -0.82000000         48.01004159
         -0.81000000         48.22268038
         -0.80000000         38.37861428
         -0.79000000         27.09464781
         -0.78000000         20.06564381
         -0.77000000         13.46701226
         -0.76000000          7.43521737
         -0.75000000          6.00568621
         -0.74000000         10.24296347
         -0.73000000         27.23200017
         -0.72000000         47.88108431
         -0.71000000         64.74732181
         -0.70000000         60.63399377
         -0.69000000         37.90070368
         -0.68000000         38.75498369
         -0.67000000         27.62825949
         -0.66000000         17.66041361
         -0.65000000         15.90041890
         -0.64000000         14.27419078
         -0.63000000         12.82624604
         -0.62000000         11.47896759
         -0.61000000         10.13168914
         -0.60000000         20.59727838
         -0.59000000          3.09201590
         -0.58000000          3.64692277
         -0.57000000          4.20182964
         -0.56000000          4.75673652
         -0.55000000          5.31164339
         -0.54000000          5.86655026
         -0.53000000         87.32399054
         -0.52000000         21.47040325
         -0.51000000         29.64033929
         -0.50000000         37.81027534
         -0.49000000         32.37123835
         -0.48000000         19.57986060
         -0.47000000         18.50593064
         -0.46000000         17.78807653
         -0.45000000         16.46026627
         -0.44000000         15.13245600
         -0.43000000         13.80464573
         -0.42000000         13.08419313
         -0.41000000         13.55987277
         -0.40000000         14.58790870
         -0.39000000         14.95532168
         -0.38000000         15.09872620
         -0.37000000         15.24213072
         -0.36000000         15.38553524
         -0.35000000         26.44126552
         -0.34000000          0.00000000
         -0.33000000          0.00000000
         -0.32000000          0.00000000
         -0.31000000          0.00000000
         -0.30000000          0.00000000
         -0.29000000          0.00000000
         -0.28000000          0.00000000
         -0.27000000          0.00000000
         -0.26000000          0.00000000
         -0.25000000          0.00000000
         -0.24000000          0.00000000
         -0.23000000          0.00000000
         -0.22000000          0.00000000
         -0.21000000          0.00000000
         -0.20000000          0.00000000
         -0.19000000          0.00000000
         -0.18000000          0.00000000
         -0.17000000          0.00000000
         -0.16000000          0.00000000
         -0.15000000          0.00000000
         -0.14000000          0.00000000
         -0.13000000          0.00000000
         -0.12000000          0.00000000
         -0.11000000          0.00000000
         -0.10000000          0.00000000
         -0.09000000          0.00000000
         -0.08000000          0.00000000
         -0.07000000          0.00000000
         -0.06000000          0.00000000
         -0.05000000          0.00000000
         -0.04000000          0.00000000
         -0.03000000          0.00000000
         -0.02000000          0.00000000
         -0.01000000          0.00000000
          0.00000000          0.00000000
